 Be Density=1.848 Thickness=250. microns
 Photon Energy (eV), Transmission
    10.000      0.00000    
    59.980      0.00000    
    109.96      0.00000    
    159.94      0.00000    
    209.92      0.00000    
    259.90      0.00000    
    309.88      0.00000    
    359.86      0.00000    
    409.84      0.00000    
    459.82      0.00000    
    509.80      0.00000    
    559.78      0.00000    
    609.76      0.00000    
    659.74      0.18796E-40
    709.72      0.82154E-33
    759.70      0.81031E-27
    809.68      0.36007E-22
    859.66      0.15703E-18
    909.64      0.11959E-15
    959.62      0.25463E-13
    1009.6      0.20620E-11
    1059.6      0.76058E-10
    1109.6      0.15117E-08
    1159.5      0.18391E-07
    1209.5      0.15081E-06
    1259.5      0.89881E-06
    1309.5      0.41262E-05
    1359.5      0.15280E-04
    1409.4      0.47388E-04
    1459.4      0.12659E-03
    1509.4      0.29834E-03
    1559.4      0.64061E-03
    1609.4      0.12562E-02
    1659.3      0.22750E-02
    1709.3      0.38488E-02
    1759.3      0.61398E-02
    1809.3      0.93102E-02
    1859.3      0.13509E-01
    1909.2      0.18863E-01
    1959.2      0.25470E-01
    2009.2      0.33393E-01
    2059.2      0.42799E-01
    2109.2      0.53659E-01
    2159.1      0.65878E-01
    2209.1      0.79385E-01
    2259.1      0.94091E-01
    2309.1      0.10989    
    2359.1      0.12665    
    2409.0      0.14425    
    2459.0      0.16256    
    2509.0      0.18145    
    2559.0      0.20079    
    2609.0      0.22046    
    2658.9      0.24035    
    2708.9      0.26036    
    2758.9      0.28039    
    2808.9      0.30036    
    2858.9      0.32019    
    2908.8      0.33982    
    2958.8      0.35920    
    3008.8      0.37827    
    3058.8      0.39724    
    3108.8      0.41593    
    3158.7      0.43421    
    3208.7      0.45205    
    3258.7      0.46942    
    3308.7      0.48633    
    3358.7      0.50276    
    3408.6      0.51871    
    3458.6      0.53417    
    3508.6      0.54915    
    3558.6      0.56366    
    3608.6      0.57768    
    3658.5      0.59124    
    3708.5      0.60434    
    3758.5      0.61699    
    3808.5      0.62920    
    3858.5      0.64098    
    3908.4      0.65235    
    3958.4      0.66331    
    4008.4      0.67388    
    4058.4      0.68407    
    4108.4      0.69391    
    4158.3      0.70349    
    4208.3      0.71271    
    4258.3      0.72160    
    4308.3      0.73016    
    4358.3      0.73841    
    4408.2      0.74636    
    4458.2      0.75402    
    4508.2      0.76140    
    4558.2      0.76850    
    4608.2      0.77535    
    4658.1      0.78195    
    4708.1      0.78831    
    4758.1      0.79444    
    4808.1      0.80035    
    4858.1      0.80605    
    4908.0      0.81154    
    4958.0      0.81684    
    5008.0      0.82195    
    5058.0      0.82689    
    5108.0      0.83164    
    5157.9      0.83623    
    5207.9      0.84067    
    5257.9      0.84497    
    5307.9      0.84914    
    5357.9      0.85316    
    5407.8      0.85704    
    5457.8      0.86079    
    5507.8      0.86442    
    5557.8      0.86792    
    5607.8      0.87130    
    5657.7      0.87457    
    5707.7      0.87773    
    5757.7      0.88079    
    5807.7      0.88374    
    5857.7      0.88660    
    5907.6      0.88937    
    5957.6      0.89204    
    6007.6      0.89463    
    6057.6      0.89714    
    6107.6      0.89957    
    6157.5      0.90192    
    6207.5      0.90420    
    6257.5      0.90640    
    6307.5      0.90854    
    6357.5      0.91062    
    6407.4      0.91264    
    6457.4      0.91460    
    6507.4      0.91650    
    6557.4      0.91834    
    6607.4      0.92013    
    6657.3      0.92186    
    6707.3      0.92354    
    6757.3      0.92517    
    6807.3      0.92675    
    6857.3      0.92829    
    6907.2      0.92978    
    6957.2      0.93123    
    7007.2      0.93263    
    7057.2      0.93400    
    7107.2      0.93533    
    7157.1      0.93662    
    7207.1      0.93787    
    7257.1      0.93909    
    7307.1      0.94027    
    7357.1      0.94142    
    7407.0      0.94254    
    7457.0      0.94363    
    7507.0      0.94469    
    7557.0      0.94572    
    7607.0      0.94672    
    7656.9      0.94769    
    7706.9      0.94864    
    7756.9      0.94957    
    7806.9      0.95047    
    7856.9      0.95134    
    7906.8      0.95219    
    7956.8      0.95302    
    8006.8      0.95383    
    8056.8      0.95462    
    8106.8      0.95539    
    8156.7      0.95614    
    8206.7      0.95687    
    8256.7      0.95759    
    8306.7      0.95828    
    8356.7      0.95896    
    8406.6      0.95963    
    8456.6      0.96028    
    8506.6      0.96091    
    8556.6      0.96153    
    8606.6      0.96213    
    8656.5      0.96272    
    8706.5      0.96329    
    8756.5      0.96385    
    8806.5      0.96440    
    8856.5      0.96493    
    8906.4      0.96545    
    8956.4      0.96596    
    9006.4      0.96646    
    9056.4      0.96694    
    9106.4      0.96741    
    9156.3      0.96788    
    9206.3      0.96833    
    9256.3      0.96877    
    9306.3      0.96920    
    9356.3      0.96962    
    9406.2      0.97003    
    9456.2      0.97044    
    9506.2      0.97083    
    9556.2      0.97121    
    9606.2      0.97159    
    9656.1      0.97196    
    9706.1      0.97232    
    9756.1      0.97267    
    9806.1      0.97301    
    9856.1      0.97335    
    9906.0      0.97368    
    9956.0      0.97400    
    10006.      0.97432    
    10056.      0.97463    
    10106.      0.97493    
    10156.      0.97523    
    10206.      0.97552    
    10256.      0.97581    
    10306.      0.97609    
    10356.      0.97636    
    10406.      0.97663    
    10456.      0.97689    
    10506.      0.97715    
    10556.      0.97740    
    10606.      0.97765    
    10656.      0.97789    
    10706.      0.97813    
    10756.      0.97836    
    10806.      0.97859    
    10856.      0.97881    
    10906.      0.97903    
    10956.      0.97924    
    11006.      0.97945    
    11056.      0.97966    
    11106.      0.97986    
    11156.      0.98006    
    11206.      0.98026    
    11256.      0.98045    
    11305.      0.98063    
    11355.      0.98082    
    11405.      0.98100    
    11455.      0.98117    
    11505.      0.98135    
    11555.      0.98152    
    11605.      0.98168    
    11655.      0.98185    
    11705.      0.98201    
    11755.      0.98216    
    11805.      0.98232    
    11855.      0.98247    
    11905.      0.98262    
    11955.      0.98276    
    12005.      0.98291    
    12055.      0.98305    
    12105.      0.98319    
    12155.      0.98332    
    12205.      0.98346    
    12255.      0.98359    
    12305.      0.98372    
    12355.      0.98384    
    12405.      0.98397    
    12455.      0.98409    
    12505.      0.98421    
    12555.      0.98433    
    12605.      0.98444    
    12655.      0.98456    
    12705.      0.98467    
    12755.      0.98478    
    12805.      0.98489    
    12855.      0.98500    
    12905.      0.98510    
    12955.      0.98520    
    13005.      0.98531    
    13055.      0.98541    
    13105.      0.98550    
    13155.      0.98560    
    13205.      0.98569    
    13255.      0.98579    
    13305.      0.98588    
    13355.      0.98597    
    13405.      0.98606    
    13455.      0.98614    
    13505.      0.98623    
    13555.      0.98631    
    13605.      0.98639    
    13655.      0.98647    
    13705.      0.98655    
    13755.      0.98663    
    13804.      0.98671    
    13854.      0.98679    
    13904.      0.98686    
    13954.      0.98693    
    14004.      0.98701    
    14054.      0.98708    
    14104.      0.98715    
    14154.      0.98722    
    14204.      0.98728    
    14254.      0.98735    
    14304.      0.98742    
    14354.      0.98748    
    14404.      0.98754    
    14454.      0.98761    
    14504.      0.98767    
    14554.      0.98773    
    14604.      0.98779    
    14654.      0.98785    
    14704.      0.98790    
    14754.      0.98796    
    14804.      0.98802    
    14854.      0.98807    
    14904.      0.98812    
    14954.      0.98818    
    15004.      0.98823    
    15054.      0.98828    
    15104.      0.98834    
    15154.      0.98839    
    15204.      0.98844    
    15254.      0.98849    
    15304.      0.98854    
    15354.      0.98859    
    15404.      0.98864    
    15454.      0.98869    
    15504.      0.98874    
    15554.      0.98878    
    15604.      0.98883    
    15654.      0.98887    
    15704.      0.98892    
    15754.      0.98896    
    15804.      0.98901    
    15854.      0.98905    
    15904.      0.98909    
    15954.      0.98913    
    16004.      0.98917    
    16054.      0.98921    
    16104.      0.98925    
    16154.      0.98929    
    16204.      0.98933    
    16253.      0.98937    
    16303.      0.98941    
    16353.      0.98945    
    16403.      0.98948    
    16453.      0.98952    
    16503.      0.98955    
    16553.      0.98959    
    16603.      0.98962    
    16653.      0.98966    
    16703.      0.98969    
    16753.      0.98973    
    16803.      0.98976    
    16853.      0.98979    
    16903.      0.98982    
    16953.      0.98986    
    17003.      0.98989    
    17053.      0.98992    
    17103.      0.98995    
    17153.      0.98998    
    17203.      0.99001    
    17253.      0.99004    
    17303.      0.99007    
    17353.      0.99009    
    17403.      0.99012    
    17453.      0.99015    
    17503.      0.99018    
    17553.      0.99020    
    17603.      0.99023    
    17653.      0.99026    
    17703.      0.99028    
    17753.      0.99031    
    17803.      0.99033    
    17853.      0.99036    
    17903.      0.99038    
    17953.      0.99041    
    18003.      0.99043    
    18053.      0.99045    
    18103.      0.99048    
    18153.      0.99050    
    18203.      0.99052    
    18253.      0.99054    
    18303.      0.99057    
    18353.      0.99059    
    18403.      0.99061    
    18453.      0.99063    
    18503.      0.99065    
    18553.      0.99067    
    18603.      0.99069    
    18653.      0.99071    
    18703.      0.99073    
    18753.      0.99075    
    18802.      0.99077    
    18852.      0.99079    
    18902.      0.99081    
    18952.      0.99083    
    19002.      0.99085    
    19052.      0.99087    
    19102.      0.99088    
    19152.      0.99090    
    19202.      0.99092    
    19252.      0.99094    
    19302.      0.99095    
    19352.      0.99097    
    19402.      0.99099    
    19452.      0.99100    
    19502.      0.99102    
    19552.      0.99104    
    19602.      0.99105    
    19652.      0.99107    
    19702.      0.99108    
    19752.      0.99110    
    19802.      0.99111    
    19852.      0.99113    
    19902.      0.99114    
    19952.      0.99116    
    20002.      0.99117    
    20052.      0.99119    
    20102.      0.99120    
    20152.      0.99122    
    20202.      0.99123    
    20252.      0.99125    
    20302.      0.99126    
    20352.      0.99128    
    20402.      0.99129    
    20452.      0.99131    
    20502.      0.99132    
    20552.      0.99134    
    20602.      0.99135    
    20652.      0.99136    
    20702.      0.99138    
    20752.      0.99139    
    20802.      0.99141    
    20852.      0.99142    
    20902.      0.99143    
    20952.      0.99144    
    21002.      0.99146    
    21052.      0.99147    
    21102.      0.99148    
    21152.      0.99150    
    21202.      0.99151    
    21252.      0.99152    
    21301.      0.99153    
    21351.      0.99154    
    21401.      0.99156    
    21451.      0.99157    
    21501.      0.99158    
    21551.      0.99159    
    21601.      0.99160    
    21651.      0.99161    
    21701.      0.99162    
    21751.      0.99164    
    21801.      0.99165    
    21851.      0.99166    
    21901.      0.99167    
    21951.      0.99168    
    22001.      0.99169    
    22051.      0.99170    
    22101.      0.99171    
    22151.      0.99172    
    22201.      0.99173    
    22251.      0.99174    
    22301.      0.99175    
    22351.      0.99176    
    22401.      0.99177    
    22451.      0.99178    
    22501.      0.99179    
    22551.      0.99180    
    22601.      0.99181    
    22651.      0.99182    
    22701.      0.99182    
    22751.      0.99183    
    22801.      0.99184    
    22851.      0.99185    
    22901.      0.99186    
    22951.      0.99187    
    23001.      0.99188    
    23051.      0.99189    
    23101.      0.99189    
    23151.      0.99190    
    23201.      0.99191    
    23251.      0.99192    
    23301.      0.99193    
    23351.      0.99193    
    23401.      0.99194    
    23451.      0.99195    
    23501.      0.99196    
    23551.      0.99197    
    23601.      0.99197    
    23651.      0.99198    
    23701.      0.99199    
    23750.      0.99199    
    23800.      0.99200    
    23850.      0.99201    
    23900.      0.99202    
    23950.      0.99202    
    24000.      0.99203    
    24050.      0.99204    
    24100.      0.99204    
    24150.      0.99205    
    24200.      0.99206    
    24250.      0.99206    
    24300.      0.99207    
    24350.      0.99208    
    24400.      0.99208    
    24450.      0.99209    
    24500.      0.99210    
    24550.      0.99210    
    24600.      0.99211    
    24650.      0.99212    
    24700.      0.99212    
    24750.      0.99213    
    24800.      0.99213    
    24850.      0.99214    
    24900.      0.99215    
    24950.      0.99215    
    25000.      0.99216    