 Mo Density=10.22 Thickness=100. microns
 Photon Energy (eV), Transmission
    10.000      0.00000    
    59.980      0.00000    
    109.96      0.00000    
    159.94      0.00000    
    209.92      0.00000    
    259.90      0.00000    
    309.88      0.00000    
    359.86      0.00000    
    409.84      0.00000    
    459.82      0.00000    
    509.80      0.00000    
    559.78      0.00000    
    609.76      0.00000    
    659.74      0.00000    
    709.72      0.00000    
    759.70      0.00000    
    809.68      0.00000    
    859.66      0.00000    
    909.64      0.00000    
    959.62      0.00000    
    1009.6      0.00000    
    1059.6      0.00000    
    1109.6      0.00000    
    1159.5      0.00000    
    1209.5      0.00000    
    1259.5      0.00000    
    1309.5      0.00000    
    1359.5      0.00000    
    1409.4      0.00000    
    1459.4      0.00000    
    1509.4      0.00000    
    1559.4      0.00000    
    1609.4      0.00000    
    1659.3      0.00000    
    1709.3      0.00000    
    1759.3      0.00000    
    1809.3      0.00000    
    1859.3      0.00000    
    1909.2      0.00000    
    1959.2      0.00000    
    2009.2      0.70065E-44
    2059.2      0.27087E-41
    2109.2      0.68437E-39
    2159.1      0.11151E-36
    2209.1      0.12250E-34
    2259.1      0.94254E-33
    2309.1      0.52537E-31
    2359.1      0.21865E-29
    2409.0      0.69834E-28
    2459.0      0.17511E-26
    2509.0      0.35240E-25
    2559.0      0.00000    
    2609.0      0.00000    
    2658.9      0.00000    
    2708.9      0.00000    
    2758.9      0.00000    
    2808.9      0.00000    
    2858.9      0.00000    
    2908.8      0.00000    
    2958.8      0.00000    
    3008.8      0.00000    
    3058.8      0.00000    
    3108.8      0.00000    
    3158.7      0.00000    
    3208.7      0.00000    
    3258.7      0.00000    
    3308.7      0.00000    
    3358.7      0.00000    
    3408.6      0.00000    
    3458.6      0.00000    
    3508.6      0.00000    
    3558.6      0.00000    
    3608.6      0.00000    
    3658.5      0.00000    
    3708.5      0.00000    
    3758.5      0.00000    
    3808.5      0.00000    
    3858.5      0.00000    
    3908.4      0.00000    
    3958.4      0.42039E-44
    4008.4      0.11351E-42
    4058.4      0.26555E-41
    4108.4      0.53905E-40
    4158.3      0.96135E-39
    4208.3      0.15167E-37
    4258.3      0.21317E-36
    4308.3      0.26846E-35
    4358.3      0.30467E-34
    4408.2      0.31339E-33
    4458.2      0.29361E-32
    4508.2      0.25169E-31
    4558.2      0.19831E-30
    4608.2      0.14421E-29
    4658.1      0.97173E-29
    4708.1      0.60900E-28
    4758.1      0.35621E-27
    4808.1      0.19531E-26
    4858.1      0.10319E-25
    4908.0      0.51628E-25
    4958.0      0.24528E-24
    5008.0      0.11012E-23
    5058.0      0.46829E-23
    5108.0      0.18908E-22
    5157.9      0.72680E-22
    5207.9      0.26652E-21
    5257.9      0.93425E-21
    5307.9      0.31369E-20
    5357.9      0.10107E-19
    5407.8      0.31301E-19
    5457.8      0.93353E-19
    5507.8      0.26850E-18
    5557.8      0.74601E-18
    5607.8      0.20048E-17
    5657.7      0.52187E-17
    5707.7      0.13176E-16
    5757.7      0.32305E-16
    5807.7      0.77004E-16
    5857.7      0.17864E-15
    5907.6      0.40378E-15
    5957.6      0.89020E-15
    6007.6      0.19160E-14
    6057.6      0.40294E-14
    6107.6      0.82879E-14
    6157.5      0.16687E-13
    6207.5      0.32913E-13
    6257.5      0.63973E-13
    6307.5      0.12203E-12
    6357.5      0.22978E-12
    6407.4      0.42514E-12
    6457.4      0.77287E-12
    6507.4      0.13813E-11
    6557.4      0.24284E-11
    6607.4      0.42024E-11
    6657.3      0.71623E-11
    6707.3      0.12028E-10
    6757.3      0.19915E-10
    6807.3      0.32524E-10
    6857.3      0.52418E-10
    6907.2      0.83405E-10
    6957.2      0.13108E-09
    7007.2      0.20357E-09
    7057.2      0.31251E-09
    7107.2      0.47440E-09
    7157.1      0.71240E-09
    7207.1      0.10587E-08
    7257.1      0.15574E-08
    7307.1      0.22689E-08
    7357.1      0.32743E-08
    7407.0      0.46819E-08
    7457.0      0.66354E-08
    7507.0      0.93234E-08
    7557.0      0.12991E-07
    7607.0      0.17956E-07
    7656.9      0.24625E-07
    7706.9      0.33516E-07
    7756.9      0.45283E-07
    7806.9      0.60744E-07
    7856.9      0.80918E-07
    7906.8      0.10707E-06
    7956.8      0.14076E-06
    8006.8      0.18388E-06
    8056.8      0.23873E-06
    8106.8      0.30811E-06
    8156.7      0.39534E-06
    8206.7      0.50443E-06
    8256.7      0.64011E-06
    8306.7      0.80797E-06
    8356.7      0.10146E-05
    8406.6      0.12676E-05
    8456.6      0.15761E-05
    8506.6      0.19503E-05
    8556.6      0.24024E-05
    8606.6      0.29458E-05
    8656.5      0.35966E-05
    8706.5      0.43724E-05
    8756.5      0.52935E-05
    8806.5      0.63830E-05
    8856.5      0.76665E-05
    8906.4      0.91731E-05
    8956.4      0.10935E-04
    9006.4      0.12994E-04
    9056.4      0.15397E-04
    9106.4      0.18181E-04
    9156.3      0.21398E-04
    9206.3      0.25105E-04
    9256.3      0.29359E-04
    9306.3      0.34226E-04
    9356.3      0.39777E-04
    9406.2      0.46093E-04
    9456.2      0.53254E-04
    9506.2      0.61355E-04
    9556.2      0.70493E-04
    9606.2      0.80774E-04
    9656.1      0.92310E-04
    9706.1      0.10522E-03
    9756.1      0.11965E-03
    9806.1      0.13573E-03
    9856.1      0.15361E-03
    9906.0      0.17344E-03
    9956.0      0.19539E-03
    10006.      0.21963E-03
    10056.      0.24633E-03
    10106.      0.27571E-03
    10156.      0.30794E-03
    10206.      0.34326E-03
    10256.      0.38186E-03
    10306.      0.42399E-03
    10356.      0.46987E-03
    10406.      0.51978E-03
    10456.      0.57396E-03
    10506.      0.63267E-03
    10556.      0.69620E-03
    10606.      0.76484E-03
    10656.      0.83886E-03
    10706.      0.91855E-03
    10756.      0.10042E-02
    10806.      0.10962E-02
    10856.      0.11948E-02
    10906.      0.13004E-02
    10956.      0.14133E-02
    11006.      0.15338E-02
    11056.      0.16622E-02
    11106.      0.17990E-02
    11156.      0.19446E-02
    11206.      0.20992E-02
    11256.      0.22632E-02
    11305.      0.24370E-02
    11355.      0.26209E-02
    11405.      0.28153E-02
    11455.      0.30207E-02
    11505.      0.32373E-02
    11555.      0.34655E-02
    11605.      0.37058E-02
    11655.      0.39585E-02
    11705.      0.42240E-02
    11755.      0.45027E-02
    11805.      0.47948E-02
    11855.      0.51009E-02
    11905.      0.54214E-02
    11955.      0.57564E-02
    12005.      0.61064E-02
    12055.      0.64719E-02
    12105.      0.68530E-02
    12155.      0.72502E-02
    12205.      0.76638E-02
    12255.      0.80942E-02
    12305.      0.85417E-02
    12355.      0.90066E-02
    12405.      0.94892E-02
    12455.      0.99898E-02
    12505.      0.10509E-01
    12555.      0.11046E-01
    12605.      0.11603E-01
    12655.      0.12178E-01
    12705.      0.12773E-01
    12755.      0.13388E-01
    12805.      0.14022E-01
    12855.      0.14677E-01
    12905.      0.15353E-01
    12955.      0.16049E-01
    13005.      0.16766E-01
    13055.      0.17504E-01
    13105.      0.18263E-01
    13155.      0.19044E-01
    13205.      0.19846E-01
    13255.      0.20670E-01
    13305.      0.21516E-01
    13355.      0.22384E-01
    13405.      0.23274E-01
    13455.      0.24187E-01
    13505.      0.25121E-01
    13555.      0.26079E-01
    13605.      0.27058E-01
    13655.      0.28061E-01
    13705.      0.29086E-01
    13755.      0.30133E-01
    13804.      0.31203E-01
    13854.      0.32296E-01
    13904.      0.33413E-01
    13954.      0.34552E-01
    14004.      0.35714E-01
    14054.      0.36899E-01
    14104.      0.38106E-01
    14154.      0.39336E-01
    14204.      0.40588E-01
    14254.      0.41863E-01
    14304.      0.43161E-01
    14354.      0.44481E-01
    14404.      0.45825E-01
    14454.      0.47190E-01
    14504.      0.48577E-01
    14554.      0.49987E-01
    14604.      0.51419E-01
    14654.      0.52872E-01
    14704.      0.54347E-01
    14754.      0.55844E-01
    14804.      0.57363E-01
    14854.      0.58902E-01
    14904.      0.60463E-01
    14954.      0.62045E-01
    15004.      0.63648E-01
    15054.      0.65272E-01
    15104.      0.66917E-01
    15154.      0.68581E-01
    15204.      0.70266E-01
    15254.      0.71971E-01
    15304.      0.73695E-01
    15354.      0.75439E-01
    15404.      0.77202E-01
    15454.      0.78984E-01
    15504.      0.80785E-01
    15554.      0.82605E-01
    15604.      0.84443E-01
    15654.      0.86300E-01
    15704.      0.88174E-01
    15754.      0.90066E-01
    15804.      0.91975E-01
    15854.      0.93901E-01
    15904.      0.95844E-01
    15954.      0.97804E-01
    16004.      0.99779E-01
    16054.      0.10177    
    16104.      0.10378    
    16154.      0.10581    
    16204.      0.10784    
    16253.      0.10990    
    16303.      0.11197    
    16353.      0.11405    
    16403.      0.11615    
    16453.      0.11826    
    16503.      0.12039    
    16553.      0.12253    
    16603.      0.12468    
    16653.      0.12685    
    16703.      0.12903    
    16753.      0.13122    
    16803.      0.13342    
    16853.      0.13563    
    16903.      0.13786    
    16953.      0.14010    
    17003.      0.14234    
    17053.      0.14460    
    17103.      0.14687    
    17153.      0.14915    
    17203.      0.15144    
    17253.      0.15374    
    17303.      0.15605    
    17353.      0.15837    
    17403.      0.16069    
    17453.      0.16303    
    17503.      0.16537    
    17553.      0.16773    
    17603.      0.17009    
    17653.      0.17245    
    17703.      0.17483    
    17753.      0.17721    
    17803.      0.17960    
    17853.      0.18200    
    17903.      0.18440    
    17953.      0.18680    
    18003.      0.18922    
    18053.      0.19164    
    18103.      0.19406    
    18153.      0.19649    
    18203.      0.19892    
    18253.      0.20136    
    18303.      0.20381    
    18353.      0.20625    
    18403.      0.20871    
    18453.      0.21116    
    18503.      0.21362    
    18553.      0.21608    
    18603.      0.21855    
    18653.      0.22102    
    18703.      0.22349    
    18753.      0.22596    
    18802.      0.22844    
    18852.      0.23092    
    18902.      0.23340    
    18952.      0.23588    
    19002.      0.23836    
    19052.      0.24084    
    19102.      0.24333    
    19152.      0.24582    
    19202.      0.24830    
    19252.      0.25079    
    19302.      0.25328    
    19352.      0.25576    
    19402.      0.25825    
    19452.      0.26074    
    19502.      0.26323    
    19552.      0.26571    
    19602.      0.26820    
    19652.      0.27069    
    19702.      0.27317    
    19752.      0.27565    
    19802.      0.27813    
    19852.      0.28061    
    19902.      0.28309    
    19952.      0.28557    
    20002.      0.24028E-03
    20052.      0.25344E-03
    20102.      0.26717E-03
    20152.      0.28152E-03
    20202.      0.29651E-03
    20252.      0.31215E-03
    20302.      0.32847E-03
    20352.      0.34549E-03
    20402.      0.36327E-03
    20452.      0.38182E-03
    20502.      0.40115E-03
    20552.      0.42127E-03
    20602.      0.44222E-03
    20652.      0.46401E-03
    20702.      0.48668E-03
    20752.      0.51033E-03
    20802.      0.53490E-03
    20852.      0.56043E-03
    20902.      0.58694E-03
    20952.      0.61447E-03
    21002.      0.64303E-03
    21052.      0.67271E-03
    21102.      0.70355E-03
    21152.      0.73551E-03
    21202.      0.76865E-03
    21252.      0.80297E-03
    21301.      0.83852E-03
    21351.      0.87532E-03
    21401.      0.91349E-03
    21451.      0.95302E-03
    21501.      0.99391E-03
    21551.      0.10362E-02
    21601.      0.10799E-02
    21651.      0.11251E-02
    21701.      0.11717E-02
    21751.      0.12200E-02
    21801.      0.12699E-02
    21851.      0.13214E-02
    21901.      0.13745E-02
    21951.      0.14294E-02
    22001.      0.14859E-02
    22051.      0.15442E-02
    22101.      0.16043E-02
    22151.      0.16664E-02
    22201.      0.17303E-02
    22251.      0.17962E-02
    22301.      0.18639E-02
    22351.      0.19337E-02
    22401.      0.20054E-02
    22451.      0.20794E-02
    22501.      0.21555E-02
    22551.      0.22338E-02
    22601.      0.23142E-02
    22651.      0.23969E-02
    22701.      0.24819E-02
    22751.      0.25691E-02
    22801.      0.26587E-02
    22851.      0.27509E-02
    22901.      0.28456E-02
    22951.      0.29427E-02
    23001.      0.30423E-02
    23051.      0.31444E-02
    23101.      0.32492E-02
    23151.      0.33565E-02
    23201.      0.34669E-02
    23251.      0.35799E-02
    23301.      0.36958E-02
    23351.      0.38144E-02
    23401.      0.39358E-02
    23451.      0.40602E-02
    23501.      0.41875E-02
    23551.      0.43179E-02
    23601.      0.44515E-02
    23651.      0.45881E-02
    23701.      0.47278E-02
    23750.      0.48707E-02
    23800.      0.50167E-02
    23850.      0.51660E-02
    23900.      0.53185E-02
    23950.      0.54746E-02
    24000.      0.56342E-02
    24050.      0.57971E-02
    24100.      0.59635E-02
    24150.      0.61333E-02
    24200.      0.63066E-02
    24250.      0.64834E-02
    24300.      0.66639E-02
    24350.      0.68484E-02
    24400.      0.70366E-02
    24450.      0.72285E-02
    24500.      0.74241E-02
    24550.      0.76235E-02
    24600.      0.78267E-02
    24650.      0.80338E-02
    24700.      0.82448E-02
    24750.      0.84602E-02
    24800.      0.86796E-02
    24850.      0.89030E-02
    24900.      0.91304E-02
    24950.      0.93619E-02
    25000.      0.95975E-02