 Nb Density=8.57 Thickness=125. microns
 Photon Energy (eV), Transmission
    10.000      0.00000    
    59.980      0.00000    
    109.96      0.00000    
    159.94      0.00000    
    209.92      0.00000    
    259.90      0.00000    
    309.88      0.00000    
    359.86      0.00000    
    409.84      0.00000    
    459.82      0.00000    
    509.80      0.00000    
    559.78      0.00000    
    609.76      0.00000    
    659.74      0.00000    
    709.72      0.00000    
    759.70      0.00000    
    809.68      0.00000    
    859.66      0.00000    
    909.64      0.00000    
    959.62      0.00000    
    1009.6      0.00000    
    1059.6      0.00000    
    1109.6      0.00000    
    1159.5      0.00000    
    1209.5      0.00000    
    1259.5      0.00000    
    1309.5      0.00000    
    1359.5      0.00000    
    1409.4      0.00000    
    1459.4      0.00000    
    1509.4      0.00000    
    1559.4      0.00000    
    1609.4      0.00000    
    1659.3      0.00000    
    1709.3      0.00000    
    1759.3      0.00000    
    1809.3      0.00000    
    1859.3      0.00000    
    1909.2      0.00000    
    1959.2      0.75670E-43
    2009.2      0.30606E-40
    2059.2      0.70822E-38
    2109.2      0.10007E-35
    2159.1      0.93811E-34
    2209.1      0.60222E-32
    2259.1      0.27776E-30
    2309.1      0.94762E-29
    2359.1      0.24796E-27
    2409.0      0.00000    
    2459.0      0.00000    
    2509.0      0.00000    
    2559.0      0.00000    
    2609.0      0.00000    
    2658.9      0.00000    
    2708.9      0.00000    
    2758.9      0.00000    
    2808.9      0.00000    
    2858.9      0.00000    
    2908.8      0.00000    
    2958.8      0.00000    
    3008.8      0.00000    
    3058.8      0.00000    
    3108.8      0.00000    
    3158.7      0.00000    
    3208.7      0.00000    
    3258.7      0.00000    
    3308.7      0.00000    
    3358.7      0.00000    
    3408.6      0.00000    
    3458.6      0.00000    
    3508.6      0.00000    
    3558.6      0.00000    
    3608.6      0.00000    
    3658.5      0.00000    
    3708.5      0.00000    
    3758.5      0.00000    
    3808.5      0.00000    
    3858.5      0.00000    
    3908.4      0.00000    
    3958.4      0.42039E-44
    4008.4      0.11351E-42
    4058.4      0.26316E-41
    4108.4      0.53790E-40
    4158.3      0.97116E-39
    4208.3      0.15568E-37
    4258.3      0.22271E-36
    4308.3      0.28595E-35
    4358.3      0.33220E-34
    4408.2      0.35006E-33
    4458.2      0.33619E-32
    4508.2      0.29576E-31
    4558.2      0.23945E-30
    4608.2      0.17891E-29
    4658.1      0.12386E-28
    4708.1      0.79820E-28
    4758.1      0.47982E-27
    4808.1      0.26997E-26
    4858.1      0.14272E-25
    4908.0      0.71008E-25
    4958.0      0.33367E-24
    5008.0      0.14850E-23
    5058.0      0.62678E-23
    5108.0      0.25164E-22
    5157.9      0.96258E-22
    5207.9      0.35164E-21
    5257.9      0.12296E-20
    5307.9      0.41205E-20
    5357.9      0.13266E-19
    5407.8      0.41068E-19
    5457.8      0.12250E-18
    5507.8      0.35263E-18
    5557.8      0.98089E-18
    5607.8      0.26402E-17
    5657.7      0.68832E-17
    5707.7      0.17427E-16
    5757.7      0.42838E-16
    5807.7      0.10241E-15
    5857.7      0.23828E-15
    5907.6      0.54040E-15
    5957.6      0.11952E-14
    6007.6      0.25805E-14
    6057.6      0.54455E-14
    6107.6      0.11240E-13
    6157.5      0.22710E-13
    6207.5      0.44941E-13
    6257.5      0.87194E-13
    6307.5      0.16596E-12
    6357.5      0.31016E-12
    6407.4      0.56948E-12
    6457.4      0.10276E-11
    6507.4      0.18235E-11
    6557.4      0.31851E-11
    6607.4      0.54795E-11
    6657.3      0.92863E-11
    6707.3      0.15512E-10
    6757.3      0.25553E-10
    6807.3      0.41538E-10
    6857.3      0.66643E-10
    6907.2      0.10561E-09
    6957.2      0.16531E-09
    7007.2      0.25579E-09
    7057.2      0.39129E-09
    7107.2      0.59209E-09
    7157.1      0.88649E-09
    7207.1      0.13136E-08
    7257.1      0.19273E-08
    7307.1      0.28002E-08
    7357.1      0.40316E-08
    7407.0      0.57516E-08
    7457.0      0.81323E-08
    7507.0      0.11399E-07
    7557.0      0.15847E-07
    7607.0      0.21863E-07
    7656.9      0.29929E-07
    7706.9      0.40663E-07
    7756.9      0.54843E-07
    7806.9      0.73447E-07
    7856.9      0.97688E-07
    7906.8      0.12907E-06
    7956.8      0.16943E-06
    8006.8      0.22103E-06
    8056.8      0.28659E-06
    8106.8      0.36945E-06
    8156.7      0.47350E-06
    8206.7      0.60352E-06
    8256.7      0.76508E-06
    8306.7      0.96472E-06
    8356.7      0.12101E-05
    8406.6      0.15102E-05
    8456.6      0.18757E-05
    8506.6      0.23189E-05
    8556.6      0.28537E-05
    8606.6      0.34961E-05
    8656.5      0.42647E-05
    8706.5      0.51801E-05
    8756.5      0.62656E-05
    8806.5      0.75479E-05
    8856.5      0.90571E-05
    8906.4      0.10827E-04
    8956.4      0.12894E-04
    9006.4      0.15300E-04
    9056.4      0.18097E-04
    9106.4      0.21331E-04
    9156.3      0.25059E-04
    9206.3      0.29342E-04
    9256.3      0.34247E-04
    9306.3      0.39849E-04
    9356.3      0.46229E-04
    9406.2      0.53473E-04
    9456.2      0.61672E-04
    9506.2      0.70934E-04
    9556.2      0.81363E-04
    9606.2      0.93076E-04
    9656.1      0.10620E-03
    9706.1      0.12087E-03
    9756.1      0.13722E-03
    9806.1      0.15541E-03
    9856.1      0.17561E-03
    9906.0      0.19797E-03
    9956.0      0.22268E-03
    10006.      0.24993E-03
    10056.      0.27990E-03
    10106.      0.31282E-03
    10156.      0.34889E-03
    10206.      0.38834E-03
    10256.      0.43142E-03
    10306.      0.47837E-03
    10356.      0.52945E-03
    10406.      0.58490E-03
    10456.      0.64503E-03
    10506.      0.71008E-03
    10556.      0.78038E-03
    10606.      0.85621E-03
    10656.      0.93790E-03
    10706.      0.10257E-02
    10756.      0.11200E-02
    10806.      0.12212E-02
    10856.      0.13295E-02
    10906.      0.14453E-02
    10956.      0.15689E-02
    11006.      0.17008E-02
    11056.      0.18412E-02
    11106.      0.19905E-02
    11156.      0.21492E-02
    11206.      0.23175E-02
    11256.      0.24959E-02
    11305.      0.26848E-02
    11355.      0.28844E-02
    11405.      0.30953E-02
    11455.      0.33178E-02
    11505.      0.35522E-02
    11555.      0.37989E-02
    11605.      0.40585E-02
    11655.      0.43311E-02
    11705.      0.46173E-02
    11755.      0.49173E-02
    11805.      0.52316E-02
    11855.      0.55606E-02
    11905.      0.59047E-02
    11955.      0.62642E-02
    12005.      0.66393E-02
    12055.      0.70306E-02
    12105.      0.74383E-02
    12155.      0.78627E-02
    12205.      0.83044E-02
    12255.      0.87636E-02
    12305.      0.92407E-02
    12355.      0.97359E-02
    12405.      0.10250E-01
    12455.      0.10782E-01
    12505.      0.11333E-01
    12555.      0.11904E-01
    12605.      0.12494E-01
    12655.      0.13105E-01
    12705.      0.13735E-01
    12755.      0.14386E-01
    12805.      0.15058E-01
    12855.      0.15750E-01
    12905.      0.16463E-01
    12955.      0.17197E-01
    13005.      0.17953E-01
    13055.      0.18731E-01
    13105.      0.19531E-01
    13155.      0.20353E-01
    13205.      0.21197E-01
    13255.      0.22063E-01
    13305.      0.22951E-01
    13355.      0.23862E-01
    13405.      0.24796E-01
    13455.      0.25752E-01
    13505.      0.26732E-01
    13555.      0.27734E-01
    13605.      0.28759E-01
    13655.      0.29808E-01
    13705.      0.30879E-01
    13755.      0.31974E-01
    13804.      0.33091E-01
    13854.      0.34231E-01
    13904.      0.35395E-01
    13954.      0.36582E-01
    14004.      0.37792E-01
    14054.      0.39026E-01
    14104.      0.40282E-01
    14154.      0.41561E-01
    14204.      0.42863E-01
    14254.      0.44188E-01
    14304.      0.45535E-01
    14354.      0.46905E-01
    14404.      0.48299E-01
    14454.      0.49714E-01
    14504.      0.51152E-01
    14554.      0.52612E-01
    14604.      0.54094E-01
    14654.      0.55598E-01
    14704.      0.57123E-01
    14754.      0.58670E-01
    14804.      0.60239E-01
    14854.      0.61829E-01
    14904.      0.63440E-01
    14954.      0.65073E-01
    15004.      0.66726E-01
    15054.      0.68400E-01
    15104.      0.70094E-01
    15154.      0.71809E-01
    15204.      0.73544E-01
    15254.      0.75298E-01
    15304.      0.77072E-01
    15354.      0.78865E-01
    15404.      0.80677E-01
    15454.      0.82509E-01
    15504.      0.84359E-01
    15554.      0.86227E-01
    15604.      0.88113E-01
    15654.      0.90018E-01
    15704.      0.91939E-01
    15754.      0.93879E-01
    15804.      0.95835E-01
    15854.      0.97809E-01
    15904.      0.99798E-01
    15954.      0.10180    
    16004.      0.10383    
    16054.      0.10586    
    16104.      0.10792    
    16154.      0.10999    
    16204.      0.11207    
    16253.      0.11417    
    16303.      0.11628    
    16353.      0.11841    
    16403.      0.12055    
    16453.      0.12270    
    16503.      0.12487    
    16553.      0.12705    
    16603.      0.12925    
    16653.      0.13145    
    16703.      0.13367    
    16753.      0.13590    
    16803.      0.13814    
    16853.      0.14040    
    16903.      0.14266    
    16953.      0.14494    
    17003.      0.14722    
    17053.      0.14952    
    17103.      0.15182    
    17153.      0.15414    
    17203.      0.15647    
    17253.      0.15880    
    17303.      0.16114    
    17353.      0.16350    
    17403.      0.16586    
    17453.      0.16822    
    17503.      0.17060    
    17553.      0.17298    
    17603.      0.17537    
    17653.      0.17777    
    17703.      0.18018    
    17753.      0.18259    
    17803.      0.18501    
    17853.      0.18743    
    17903.      0.18986    
    17953.      0.19230    
    18003.      0.19474    
    18053.      0.19718    
    18103.      0.19963    
    18153.      0.20209    
    18203.      0.20455    
    18253.      0.20701    
    18303.      0.20948    
    18353.      0.21195    
    18403.      0.21443    
    18453.      0.21691    
    18503.      0.21939    
    18553.      0.22187    
    18603.      0.22436    
    18653.      0.22685    
    18703.      0.22934    
    18753.      0.23183    
    18802.      0.23433    
    18852.      0.23682    
    18902.      0.23932    
    18952.      0.24182    
    19002.      0.70560E-04
    19052.      0.75213E-04
    19102.      0.80126E-04
    19152.      0.85310E-04
    19202.      0.90778E-04
    19252.      0.96541E-04
    19302.      0.10261E-03
    19352.      0.10900E-03
    19402.      0.11573E-03
    19452.      0.12280E-03
    19502.      0.13026E-03
    19552.      0.13811E-03
    19602.      0.14634E-03
    19652.      0.15499E-03
    19702.      0.16406E-03
    19752.      0.17358E-03
    19802.      0.18358E-03
    19852.      0.19407E-03
    19902.      0.20506E-03
    19952.      0.21657E-03
    20002.      0.22861E-03
    20052.      0.24120E-03
    20102.      0.25438E-03
    20152.      0.26819E-03
    20202.      0.28262E-03
    20252.      0.29768E-03
    20302.      0.31340E-03
    20352.      0.32981E-03
    20402.      0.34692E-03
    20452.      0.36481E-03
    20502.      0.38346E-03
    20552.      0.40289E-03
    20602.      0.42313E-03
    20652.      0.44419E-03
    20702.      0.46610E-03
    20752.      0.48891E-03
    20802.      0.51269E-03
    20852.      0.53739E-03
    20902.      0.56307E-03
    20952.      0.58973E-03
    21002.      0.61741E-03
    21052.      0.64615E-03
    21102.      0.67600E-03
    21152.      0.70701E-03
    21202.      0.73917E-03
    21252.      0.77249E-03
    21301.      0.80702E-03
    21351.      0.84277E-03
    21401.      0.87980E-03
    21451.      0.91819E-03
    21501.      0.95796E-03
    21551.      0.99910E-03
    21601.      0.10416E-02
    21651.      0.10856E-02
    21701.      0.11310E-02
    21751.      0.11780E-02
    21801.      0.12266E-02
    21851.      0.12768E-02
    21901.      0.13286E-02
    21951.      0.13821E-02
    22001.      0.14372E-02
    22051.      0.14941E-02
    22101.      0.15527E-02
    22151.      0.16133E-02
    22201.      0.16757E-02
    22251.      0.17401E-02
    22301.      0.18063E-02
    22351.      0.18745E-02
    22401.      0.19447E-02
    22451.      0.20169E-02
    22501.      0.20913E-02
    22551.      0.21679E-02
    22601.      0.22467E-02
    22651.      0.23277E-02
    22701.      0.24109E-02
    22751.      0.24964E-02
    22801.      0.25842E-02
    22851.      0.26744E-02
    22901.      0.27672E-02
    22951.      0.28624E-02
    23001.      0.29601E-02
    23051.      0.30604E-02
    23101.      0.31632E-02
    23151.      0.32686E-02
    23201.      0.33766E-02
    23251.      0.34876E-02
    23301.      0.36014E-02
    23351.      0.37179E-02
    23401.      0.38373E-02
    23451.      0.39596E-02
    23501.      0.40847E-02
    23551.      0.42128E-02
    23601.      0.43440E-02
    23651.      0.44784E-02
    23701.      0.46159E-02
    23750.      0.47566E-02
    23800.      0.49003E-02
    23850.      0.50473E-02
    23900.      0.51975E-02
    23950.      0.53510E-02
    24000.      0.55081E-02
    24050.      0.56687E-02
    24100.      0.58326E-02
    24150.      0.60001E-02
    24200.      0.61710E-02
    24250.      0.63454E-02
    24300.      0.65233E-02
    24350.      0.67050E-02
    24400.      0.68906E-02
    24450.      0.70800E-02
    24500.      0.72730E-02
    24550.      0.74698E-02
    24600.      0.76704E-02
    24650.      0.78750E-02
    24700.      0.80832E-02
    24750.      0.82955E-02
    24800.      0.85122E-02
    24850.      0.87330E-02
    24900.      0.89576E-02
    24950.      0.91864E-02
    25000.      0.94193E-02