 Al Density=2.6989 Thickness=48. microns
 Photon Energy (eV), Transmission
    1000.0      0.20375E-06
    1048.0      0.12685E-05
    1096.0      0.61499E-05
    1144.0      0.23472E-04
    1192.0      0.73666E-04
    1240.0      0.19664E-03
    1288.0      0.45439E-03
    1336.0      0.93728E-03
    1384.0      0.17666E-02
    1432.0      0.30845E-02
    1480.0      0.50683E-02
    1528.0      0.80535E-02
    1576.0      0.13526E-22
    1624.0      0.49709E-21
    1672.0      0.12981E-19
    1720.0      0.25107E-18
    1768.0      0.40490E-17
    1816.0      0.53064E-16
    1864.0      0.55755E-15
    1912.0      0.47878E-14
    1960.0      0.34319E-13
    2008.0      0.20757E-12
    2056.0      0.11118E-11
    2104.0      0.53854E-11
    2152.0      0.23221E-10
    2200.0      0.90257E-10
    2248.0      0.31848E-09
    2296.0      0.10289E-08
    2344.0      0.30659E-08
    2392.0      0.84906E-08
    2440.0      0.21949E-07
    2488.0      0.53336E-07
    2536.0      0.12231E-06
    2584.0      0.26603E-06
    2632.0      0.55083E-06
    2680.0      0.10901E-05
    2728.0      0.20689E-05
    2776.0      0.37780E-05
    2824.0      0.66543E-05
    2872.0      0.11337E-04
    2920.0      0.18727E-04
    2968.0      0.30061E-04
    3016.0      0.46969E-04
    3064.0      0.71595E-04
    3112.0      0.10663E-03
    3160.0      0.15540E-03
    3208.0      0.22194E-03
    3256.0      0.31103E-03
    3304.0      0.42829E-03
    3352.0      0.58010E-03
    3400.0      0.77356E-03
    3448.0      0.10167E-02
    3496.0      0.13180E-02
    3544.0      0.16873E-02
    3592.0      0.21341E-02
    3640.0      0.26689E-02
    3688.0      0.33023E-02
    3736.0      0.40452E-02
    3784.0      0.49087E-02
    3832.0      0.59039E-02
    3880.0      0.70415E-02
    3928.0      0.83318E-02
    3976.0      0.97845E-02
    4024.0      0.11411E-01
    4072.0      0.13218E-01
    4120.0      0.15215E-01
    4168.0      0.17408E-01
    4216.0      0.19806E-01
    4264.0      0.22411E-01
    4312.0      0.25229E-01
    4360.0      0.28266E-01
    4408.0      0.31522E-01
    4456.0      0.34999E-01
    4504.0      0.38699E-01
    4552.0      0.42622E-01
    4600.0      0.46766E-01
    4648.0      0.51128E-01
    4696.0      0.55707E-01
    4744.0      0.60498E-01
    4792.0      0.65500E-01
    4840.0      0.70705E-01
    4888.0      0.76105E-01
    4936.0      0.81703E-01
    4984.0      0.87486E-01
    5032.0      0.93447E-01
    5080.0      0.99580E-01
    5128.0      0.10588    
    5176.0      0.11234    
    5224.0      0.11894    
    5272.0      0.12569    
    5320.0      0.13257    
    5368.0      0.13957    
    5416.0      0.14669    
    5464.0      0.15391    
    5512.0      0.16125    
    5560.0      0.16867    
    5608.0      0.17618    
    5656.0      0.18375    
    5704.0      0.19140    
    5752.0      0.19910    
    5800.0      0.20687    
    5848.0      0.21467    
    5896.0      0.22252    
    5944.0      0.23040    
    5992.0      0.23831    
    6040.0      0.24624    
    6088.0      0.25417    
    6136.0      0.26211    
    6184.0      0.27006    
    6232.0      0.27801    
    6280.0      0.28595    
    6328.0      0.29387    
    6376.0      0.30178    
    6424.0      0.30966    
    6472.0      0.31752    
    6520.0      0.32534    
    6568.0      0.33313    
    6616.0      0.34089    
    6664.0      0.34860    
    6712.0      0.35627    
    6760.0      0.36389    
    6808.0      0.37146    
    6856.0      0.37898    
    6904.0      0.38645    
    6952.0      0.39385    
    7000.0      0.40120    
    7048.0      0.40849    
    7096.0      0.41571    
    7144.0      0.42288    
    7192.0      0.42997    
    7240.0      0.43700    
    7288.0      0.44397    
    7336.0      0.45086    
    7384.0      0.45768    
    7432.0      0.46444    
    7480.0      0.47112    
    7528.0      0.47773    
    7576.0      0.48427    
    7624.0      0.49074    
    7672.0      0.49713    
    7720.0      0.50345    
    7768.0      0.50969    
    7816.0      0.51587    
    7864.0      0.52197    
    7912.0      0.52799    
    7960.0      0.53395    
    8008.0      0.53982    
    8056.0      0.54563    
    8104.0      0.55136    
    8152.0      0.55702    
    8200.0      0.56261    
    8248.0      0.56813    
    8296.0      0.57358    
    8344.0      0.57895    
    8392.0      0.58426    
    8440.0      0.58949    
    8488.0      0.59466    
    8536.0      0.59975    
    8584.0      0.60478    
    8632.0      0.60974    
    8680.0      0.61464    
    8728.0      0.61946    
    8776.0      0.62422    
    8824.0      0.62892    
    8872.0      0.63355    
    8920.0      0.63812    
    8968.0      0.64262    
    9016.0      0.64706    
    9064.0      0.65145    
    9112.0      0.65577    
    9160.0      0.66002    
    9208.0      0.66422    
    9256.0      0.66836    
    9304.0      0.67245    
    9352.0      0.67647    
    9400.0      0.68044    
    9448.0      0.68435    
    9496.0      0.68821    
    9544.0      0.69201    
    9592.0      0.69576    
    9640.0      0.69945    
    9688.0      0.70310    
    9736.0      0.70669    
    9784.0      0.71023    
    9832.0      0.71372    
    9880.0      0.71716    
    9928.0      0.72055    
    9976.0      0.72390    
    10024.      0.72719    
    10072.      0.73044    
    10120.      0.73365    
    10168.      0.73681    
    10216.      0.73992    
    10264.      0.74299    
    10312.      0.74602    
    10360.      0.74900    
    10408.      0.75195    
    10456.      0.75485    
    10504.      0.75771    
    10552.      0.76052    
    10600.      0.76330    
    10648.      0.76604    
    10696.      0.76875    
    10744.      0.77141    
    10792.      0.77404    
    10840.      0.77663    
    10888.      0.77918    
    10936.      0.78170    
    10984.      0.78418    
    11032.      0.78663    
    11080.      0.78904    
    11128.      0.79142    
    11176.      0.79377    
    11224.      0.79608    
    11272.      0.79836    
    11320.      0.80062    
    11368.      0.80284    
    11416.      0.80503    
    11464.      0.80718    
    11512.      0.80931    
    11560.      0.81141    
    11608.      0.81349    
    11656.      0.81553    
    11704.      0.81754    
    11752.      0.81953    
    11800.      0.82149    
    11848.      0.82343    
    11896.      0.82533    
    11944.      0.82722    
    11992.      0.82907    
    12040.      0.83090    
    12088.      0.83271    
    12136.      0.83449    
    12184.      0.83625    
    12232.      0.83799    
    12280.      0.83970    
    12328.      0.84139    
    12376.      0.84306    
    12424.      0.84470    
    12472.      0.84632    
    12520.      0.84793    
    12568.      0.84951    
    12616.      0.85107    
    12664.      0.85260    
    12712.      0.85412    
    12760.      0.85562    
    12808.      0.85710    
    12856.      0.85856    
    12904.      0.86000    
    12952.      0.86143    
    13000.      0.86283    
    13048.      0.86422    
    13096.      0.86558    
    13144.      0.86694    
    13192.      0.86827    
    13240.      0.86959    
    13288.      0.87089    
    13336.      0.87217    
    13384.      0.87343    
    13432.      0.87468    
    13480.      0.87592    
    13528.      0.87714    
    13576.      0.87834    
    13624.      0.87953    
    13672.      0.88071    
    13720.      0.88187    
    13768.      0.88301    
    13816.      0.88414    
    13864.      0.88526    
    13912.      0.88636    
    13960.      0.88745    
    14008.      0.88852    
    14056.      0.88959    
    14104.      0.89063    
    14152.      0.89167    
    14200.      0.89270    
    14248.      0.89371    
    14296.      0.89470    
    14344.      0.89569    
    14392.      0.89667    
    14440.      0.89763    
    14488.      0.89858    
    14536.      0.89952    
    14584.      0.90045    
    14632.      0.90137    
    14680.      0.90227    
    14728.      0.90317    
    14776.      0.90405    
    14824.      0.90493    
    14872.      0.90579    
    14920.      0.90665    
    14968.      0.90749    
    15016.      0.90833    
    15064.      0.90915    
    15112.      0.90997    
    15160.      0.91077    
    15208.      0.91157    
    15256.      0.91236    
    15304.      0.91313    
    15352.      0.91390    
    15400.      0.91466    
    15448.      0.91542    
    15496.      0.91616    
    15544.      0.91689    
    15592.      0.91762    
    15640.      0.91834    
    15688.      0.91905    
    15736.      0.91975    
    15784.      0.92044    
    15832.      0.92113    
    15880.      0.92181    
    15928.      0.92248    
    15976.      0.92314    
    16024.      0.92380    
    16072.      0.92444    
    16120.      0.92508    
    16168.      0.92572    
    16216.      0.92635    
    16264.      0.92697    
    16312.      0.92758    
    16360.      0.92818    
    16408.      0.92878    
    16456.      0.92938    
    16504.      0.92996    
    16552.      0.93054    
    16600.      0.93112    
    16648.      0.93169    
    16696.      0.93225    
    16744.      0.93280    
    16792.      0.93335    
    16840.      0.93390    
    16888.      0.93444    
    16936.      0.93497    
    16984.      0.93549    
    17032.      0.93601    
    17080.      0.93653    
    17128.      0.93704    
    17176.      0.93754    
    17224.      0.93804    
    17272.      0.93854    
    17320.      0.93903    
    17368.      0.93951    
    17416.      0.93999    
    17464.      0.94046    
    17512.      0.94093    
    17560.      0.94139    
    17608.      0.94185    
    17656.      0.94230    
    17704.      0.94275    
    17752.      0.94320    
    17800.      0.94364    
    17848.      0.94408    
    17896.      0.94451    
    17944.      0.94493    
    17992.      0.94536    
    18040.      0.94577    
    18088.      0.94619    
    18136.      0.94660    
    18184.      0.94700    
    18232.      0.94740    
    18280.      0.94780    
    18328.      0.94820    
    18376.      0.94859    
    18424.      0.94897    
    18472.      0.94935    
    18520.      0.94973    
    18568.      0.95010    
    18616.      0.95048    
    18664.      0.95084    
    18712.      0.95121    
    18760.      0.95157    
    18808.      0.95192    
    18856.      0.95227    
    18904.      0.95262    
    18952.      0.95297    
    19000.      0.95331    
    19048.      0.95365    
    19096.      0.95399    
    19144.      0.95432    
    19192.      0.95465    
    19240.      0.95497    
    19288.      0.95530    
    19336.      0.95562    
    19384.      0.95593    
    19432.      0.95625    
    19480.      0.95656    
    19528.      0.95687    
    19576.      0.95717    
    19624.      0.95747    
    19672.      0.95777    
    19720.      0.95807    
    19768.      0.95836    
    19816.      0.95866    
    19864.      0.95895    
    19912.      0.95923    
    19960.      0.95952    
    20008.      0.95980    
    20056.      0.96008    
    20104.      0.96035    
    20152.      0.96063    
    20200.      0.96090    
    20248.      0.96117    
    20296.      0.96143    
    20344.      0.96169    
    20392.      0.96195    
    20440.      0.96221    
    20488.      0.96247    
    20536.      0.96272    
    20584.      0.96297    
    20632.      0.96322    
    20680.      0.96346    
    20728.      0.96371    
    20776.      0.96395    
    20824.      0.96419    
    20872.      0.96443    
    20920.      0.96466    
    20968.      0.96490    
    21016.      0.96513    
    21064.      0.96535    
    21112.      0.96558    
    21160.      0.96581    
    21208.      0.96603    
    21256.      0.96625    
    21304.      0.96647    
    21352.      0.96668    
    21400.      0.96690    
    21448.      0.96711    
    21496.      0.96732    
    21544.      0.96753    
    21592.      0.96774    
    21640.      0.96795    
    21688.      0.96815    
    21736.      0.96835    
    21784.      0.96855    
    21832.      0.96875    
    21880.      0.96895    
    21928.      0.96914    
    21976.      0.96933    
    22024.      0.96953    
    22072.      0.96971    
    22120.      0.96990    
    22168.      0.97009    
    22216.      0.97027    
    22264.      0.97046    
    22312.      0.97064    
    22360.      0.97082    
    22408.      0.97100    
    22456.      0.97118    
    22504.      0.97135    
    22552.      0.97153    
    22600.      0.97170    
    22648.      0.97187    
    22696.      0.97204    
    22744.      0.97221    
    22792.      0.97237    
    22840.      0.97254    
    22888.      0.97270    
    22936.      0.97287    
    22984.      0.97303    
    23032.      0.97319    
    23080.      0.97335    
    23128.      0.97351    
    23176.      0.97366    
    23224.      0.97382    
    23272.      0.97397    
    23320.      0.97412    
    23368.      0.97427    
    23416.      0.97442    
    23464.      0.97457    
    23512.      0.97472    
    23560.      0.97486    
    23608.      0.97501    
    23656.      0.97515    
    23704.      0.97530    
    23752.      0.97544    
    23800.      0.97558    
    23848.      0.97572    
    23896.      0.97585    
    23944.      0.97599    
    23992.      0.97613    
    24040.      0.97626    
    24088.      0.97640    
    24136.      0.97653    
    24184.      0.97666    
    24232.      0.97679    
    24280.      0.97692    
    24328.      0.97705    
    24376.      0.97718    
    24424.      0.97730    
    24472.      0.97743    
    24520.      0.97755    
    24568.      0.97768    
    24616.      0.97780    
    24664.      0.97792    
    24712.      0.97804    
    24760.      0.97816    
    24808.      0.97828    
    24856.      0.97840    
    24904.      0.97851    
    24952.      0.97863    
    25000.      0.97874    