 Co Density=8.9 Thickness=5.3 microns
 Photon Energy (eV), Transmission
    10.000      0.00000    
    59.980      0.00000    
    109.96      0.00000    
    159.94      0.00000    
    209.92      0.00000    
    259.90      0.21191E-35
    309.88      0.12743E-25
    359.86      0.34308E-19
    409.84      0.89759E-15
    459.82      0.12432E-11
    509.80      0.25225E-09
    559.78      0.12598E-07
    609.76      0.25026E-06
    659.74      0.26899E-05
    709.72      0.16448E-04
    759.70      0.74381E-04
    809.68      0.12275E-28
    859.66      0.41145E-25
    909.64      0.17075E-22
    959.62      0.87321E-22
    1009.6      0.36598E-19
    1059.6      0.46115E-17
    1109.6      0.29222E-15
    1159.5      0.10300E-13
    1209.5      0.22394E-12
    1259.5      0.33033E-11
    1309.5      0.36183E-10
    1359.5      0.29674E-09
    1409.4      0.18941E-08
    1459.4      0.97783E-08
    1509.4      0.42593E-07
    1559.4      0.16069E-06
    1609.4      0.52665E-06
    1659.3      0.15271E-05
    1709.3      0.39801E-05
    1759.3      0.95798E-05
    1809.3      0.21467E-04
    1859.3      0.44657E-04
    1909.2      0.86854E-04
    1959.2      0.15912E-03
    2009.2      0.27586E-03
    2059.2      0.45841E-03
    2109.2      0.73366E-03
    2159.1      0.11313E-02
    2209.1      0.16857E-02
    2259.1      0.24366E-02
    2309.1      0.34255E-02
    2359.1      0.46960E-02
    2409.0      0.62919E-02
    2459.0      0.82530E-02
    2509.0      0.10624E-01
    2559.0      0.13439E-01
    2609.0      0.16728E-01
    2658.9      0.20521E-01
    2708.9      0.24837E-01
    2758.9      0.29692E-01
    2808.9      0.35094E-01
    2858.9      0.41045E-01
    2908.8      0.47542E-01
    2958.8      0.54578E-01
    3008.8      0.62139E-01
    3058.8      0.70205E-01
    3108.8      0.78758E-01
    3158.7      0.87771E-01
    3208.7      0.97216E-01
    3258.7      0.10706    
    3308.7      0.11729    
    3358.7      0.12785    
    3408.6      0.13872    
    3458.6      0.14987    
    3508.6      0.16126    
    3558.6      0.17287    
    3608.6      0.18465    
    3658.5      0.19659    
    3708.5      0.20865    
    3758.5      0.22081    
    3808.5      0.23304    
    3858.5      0.24531    
    3908.4      0.25761    
    3958.4      0.26990    
    4008.4      0.28217    
    4058.4      0.29441    
    4108.4      0.30658    
    4158.3      0.31869    
    4208.3      0.33071    
    4258.3      0.34262    
    4308.3      0.35443    
    4358.3      0.36612    
    4408.2      0.37768    
    4458.2      0.38909    
    4508.2      0.40037    
    4558.2      0.41148    
    4608.2      0.42243    
    4658.1      0.43323    
    4708.1      0.44386    
    4758.1      0.45431    
    4808.1      0.46460    
    4858.1      0.47470    
    4908.0      0.48464    
    4958.0      0.49439    
    5008.0      0.50396    
    5058.0      0.51335    
    5108.0      0.52258    
    5157.9      0.53162    
    5207.9      0.54049    
    5257.9      0.54918    
    5307.9      0.55769    
    5357.9      0.56603    
    5407.8      0.57420    
    5457.8      0.58221    
    5507.8      0.59005    
    5557.8      0.59773    
    5607.8      0.60524    
    5657.7      0.61259    
    5707.7      0.61980    
    5757.7      0.62685    
    5807.7      0.63374    
    5857.7      0.64048    
    5907.6      0.64708    
    5957.6      0.65354    
    6007.6      0.65985    
    6057.6      0.66603    
    6107.6      0.67208    
    6157.5      0.67799    
    6207.5      0.68378    
    6257.5      0.68943    
    6307.5      0.69497    
    6357.5      0.70038    
    6407.4      0.70568    
    6457.4      0.71085    
    6507.4      0.71592    
    6557.4      0.72087    
    6607.4      0.72572    
    6657.3      0.73047    
    6707.3      0.73510    
    6757.3      0.73964    
    6807.3      0.74408    
    6857.3      0.74843    
    6907.2      0.75267    
    6957.2      0.75683    
    7007.2      0.76090    
    7057.2      0.76488    
    7107.2      0.76878    
    7157.1      0.77259    
    7207.1      0.77633    
    7257.1      0.77998    
    7307.1      0.78356    
    7357.1      0.78705    
    7407.0      0.79048    
    7457.0      0.79383    
    7507.0      0.79712    
    7557.0      0.80033    
    7607.0      0.80348    
    7656.9      0.80657    
    7706.9      0.80959    
    7756.9      0.19538    
    7806.9      0.20044    
    7856.9      0.20551    
    7906.8      0.21060    
    7956.8      0.21573    
    8006.8      0.22087    
    8056.8      0.22602    
    8106.8      0.23120    
    8156.7      0.23639    
    8206.7      0.24160    
    8256.7      0.24682    
    8306.7      0.25204    
    8356.7      0.25728    
    8406.6      0.26251    
    8456.6      0.26775    
    8506.6      0.27301    
    8556.6      0.27826    
    8606.6      0.28350    
    8656.5      0.28875    
    8706.5      0.29399    
    8756.5      0.29924    
    8806.5      0.30447    
    8856.5      0.30969    
    8906.4      0.31491    
    8956.4      0.32012    
    9006.4      0.32531    
    9056.4      0.33049    
    9106.4      0.33566    
    9156.3      0.34081    
    9206.3      0.34595    
    9256.3      0.35108    
    9306.3      0.35618    
    9356.3      0.36127    
    9406.2      0.36634    
    9456.2      0.37138    
    9506.2      0.37641    
    9556.2      0.38141    
    9606.2      0.38639    
    9656.1      0.39135    
    9706.1      0.39629    
    9756.1      0.40120    
    9806.1      0.40608    
    9856.1      0.41093    
    9906.0      0.41576    
    9956.0      0.42056    
    10006.      0.42534    
    10056.      0.43009    
    10106.      0.43481    
    10156.      0.43950    
    10206.      0.44416    
    10256.      0.44879    
    10306.      0.45340    
    10356.      0.45797    
    10406.      0.46251    
    10456.      0.46703    
    10506.      0.47151    
    10556.      0.47595    
    10606.      0.48037    
    10656.      0.48476    
    10706.      0.48911    
    10756.      0.49343    
    10806.      0.49773    
    10856.      0.50199    
    10906.      0.50621    
    10956.      0.51040    
    11006.      0.51457    
    11056.      0.51869    
    11106.      0.52279    
    11156.      0.52686    
    11206.      0.53089    
    11256.      0.53488    
    11305.      0.53885    
    11355.      0.54279    
    11405.      0.54669    
    11455.      0.55056    
    11505.      0.55440    
    11555.      0.55820    
    11605.      0.56197    
    11655.      0.56571    
    11705.      0.56942    
    11755.      0.57310    
    11805.      0.57674    
    11855.      0.58035    
    11905.      0.58393    
    11955.      0.58748    
    12005.      0.59100    
    12055.      0.59449    
    12105.      0.59795    
    12155.      0.60137    
    12205.      0.60476    
    12255.      0.60813    
    12305.      0.61146    
    12355.      0.61477    
    12405.      0.61804    
    12455.      0.62128    
    12505.      0.62450    
    12555.      0.62768    
    12605.      0.63084    
    12655.      0.63396    
    12705.      0.63706    
    12755.      0.64013    
    12805.      0.64317    
    12855.      0.64618    
    12905.      0.64917    
    12955.      0.65212    
    13005.      0.65505    
    13055.      0.65795    
    13105.      0.66082    
    13155.      0.66367    
    13205.      0.66649    
    13255.      0.66928    
    13305.      0.67205    
    13355.      0.67479    
    13405.      0.67750    
    13455.      0.68019    
    13505.      0.68285    
    13555.      0.68549    
    13605.      0.68811    
    13655.      0.69069    
    13705.      0.69326    
    13755.      0.69580    
    13804.      0.69831    
    13854.      0.70080    
    13904.      0.70327    
    13954.      0.70571    
    14004.      0.70813    
    14054.      0.71053    
    14104.      0.71290    
    14154.      0.71525    
    14204.      0.71758    
    14254.      0.71988    
    14304.      0.72217    
    14354.      0.72443    
    14404.      0.72667    
    14454.      0.72889    
    14504.      0.73109    
    14554.      0.73326    
    14604.      0.73542    
    14654.      0.73755    
    14704.      0.73967    
    14754.      0.74176    
    14804.      0.74383    
    14854.      0.74589    
    14904.      0.74792    
    14954.      0.74994    
    15004.      0.75193    
    15054.      0.75391    
    15104.      0.75587    
    15154.      0.75781    
    15204.      0.75973    
    15254.      0.76163    
    15304.      0.76351    
    15354.      0.76538    
    15404.      0.76723    
    15454.      0.76906    
    15504.      0.77087    
    15554.      0.77267    
    15604.      0.77445    
    15654.      0.77621    
    15704.      0.77795    
    15754.      0.77968    
    15804.      0.78139    
    15854.      0.78309    
    15904.      0.78477    
    15954.      0.78643    
    16004.      0.78808    
    16054.      0.78971    
    16104.      0.79133    
    16154.      0.79293    
    16204.      0.79452    
    16253.      0.79609    
    16303.      0.79764    
    16353.      0.79919    
    16403.      0.80071    
    16453.      0.80223    
    16503.      0.80373    
    16553.      0.80521    
    16603.      0.80668    
    16653.      0.80814    
    16703.      0.80959    
    16753.      0.81102    
    16803.      0.81243    
    16853.      0.81384    
    16903.      0.81523    
    16953.      0.81661    
    17003.      0.81797    
    17053.      0.81932    
    17103.      0.82066    
    17153.      0.82199    
    17203.      0.82331    
    17253.      0.82461    
    17303.      0.82590    
    17353.      0.82718    
    17403.      0.82845    
    17453.      0.82970    
    17503.      0.83095    
    17553.      0.83218    
    17603.      0.83340    
    17653.      0.83461    
    17703.      0.83581    
    17753.      0.83700    
    17803.      0.83818    
    17853.      0.83935    
    17903.      0.84050    
    17953.      0.84165    
    18003.      0.84278    
    18053.      0.84391    
    18103.      0.84502    
    18153.      0.84613    
    18203.      0.84722    
    18253.      0.84831    
    18303.      0.84939    
    18353.      0.85045    
    18403.      0.85151    
    18453.      0.85255    
    18503.      0.85359    
    18553.      0.85462    
    18603.      0.85564    
    18653.      0.85665    
    18703.      0.85765    
    18753.      0.85864    
    18802.      0.85963    
    18852.      0.86060    
    18902.      0.86157    
    18952.      0.86253    
    19002.      0.86348    
    19052.      0.86442    
    19102.      0.86535    
    19152.      0.86627    
    19202.      0.86719    
    19252.      0.86810    
    19302.      0.86900    
    19352.      0.86989    
    19402.      0.87078    
    19452.      0.87165    
    19502.      0.87252    
    19552.      0.87339    
    19602.      0.87424    
    19652.      0.87509    
    19702.      0.87593    
    19752.      0.87676    
    19802.      0.87759    
    19852.      0.87841    
    19902.      0.87922    
    19952.      0.88002    
    20002.      0.88082    
    20052.      0.88161    
    20102.      0.88239    
    20152.      0.88317    
    20202.      0.88394    
    20252.      0.88471    
    20302.      0.88547    
    20352.      0.88622    
    20402.      0.88696    
    20452.      0.88770    
    20502.      0.88844    
    20552.      0.88916    
    20602.      0.88988    
    20652.      0.89060    
    20702.      0.89131    
    20752.      0.89201    
    20802.      0.89271    
    20852.      0.89340    
    20902.      0.89408    
    20952.      0.89476    
    21002.      0.89544    
    21052.      0.89610    
    21102.      0.89677    
    21152.      0.89743    
    21202.      0.89808    
    21252.      0.89872    
    21301.      0.89937    
    21351.      0.90000    
    21401.      0.90063    
    21451.      0.90126    
    21501.      0.90188    
    21551.      0.90250    
    21601.      0.90311    
    21651.      0.90371    
    21701.      0.90431    
    21751.      0.90491    
    21801.      0.90550    
    21851.      0.90609    
    21901.      0.90667    
    21951.      0.90725    
    22001.      0.90782    
    22051.      0.90839    
    22101.      0.90895    
    22151.      0.90951    
    22201.      0.91006    
    22251.      0.91061    
    22301.      0.91116    
    22351.      0.91170    
    22401.      0.91224    
    22451.      0.91277    
    22501.      0.91330    
    22551.      0.91382    
    22601.      0.91434    
    22651.      0.91486    
    22701.      0.91537    
    22751.      0.91588    
    22801.      0.91638    
    22851.      0.91688    
    22901.      0.91738    
    22951.      0.91787    
    23001.      0.91836    
    23051.      0.91885    
    23101.      0.91933    
    23151.      0.91980    
    23201.      0.92028    
    23251.      0.92075    
    23301.      0.92121    
    23351.      0.92168    
    23401.      0.92214    
    23451.      0.92259    
    23501.      0.92304    
    23551.      0.92349    
    23601.      0.92394    
    23651.      0.92438    
    23701.      0.92482    
    23750.      0.92526    
    23800.      0.92569    
    23850.      0.92612    
    23900.      0.92654    
    23950.      0.92696    
    24000.      0.92738    
    24050.      0.92780    
    24100.      0.92821    
    24150.      0.92862    
    24200.      0.92903    
    24250.      0.92943    
    24300.      0.92983    
    24350.      0.93023    
    24400.      0.93063    
    24450.      0.93102    
    24500.      0.93141    
    24550.      0.93179    
    24600.      0.93218    
    24650.      0.93256    
    24700.      0.93293    
    24750.      0.93331    
    24800.      0.93368    
    24850.      0.93405    
    24900.      0.93442    
    24950.      0.93478    
    25000.      0.93514    