 Fe Density=7.874 Thickness=6.4 microns
 Photon Energy (eV), Transmission
    10.000      0.00000    
    59.980      0.00000    
    109.96      0.00000    
    159.94      0.00000    
    209.92      0.00000    
    259.90      0.53315E-39
    309.88      0.14470E-28
    359.86      0.10800E-20
    409.84      0.21154E-15
    459.82      0.81086E-12
    509.80      0.26646E-09
    559.78      0.18147E-07
    609.76      0.38405E-06
    659.74      0.39205E-05
    709.72      0.45715E-39
    759.70      0.33752E-33
    809.68      0.29914E-29
    859.66      0.79784E-28
    909.64      0.22245E-24
    959.62      0.18959E-21
    1009.6      0.51003E-19
    1059.6      0.62726E-17
    1109.6      0.40175E-15
    1159.5      0.14230E-13
    1209.5      0.30959E-12
    1259.5      0.45630E-11
    1309.5      0.49947E-10
    1359.5      0.40852E-09
    1409.4      0.25968E-08
    1459.4      0.13326E-07
    1509.4      0.57686E-07
    1559.4      0.21606E-06
    1609.4      0.70272E-06
    1659.3      0.20220E-05
    1709.3      0.52285E-05
    1759.3      0.12445E-04
    1809.3      0.27526E-04
    1859.3      0.56551E-04
    1909.2      0.10868E-03
    1959.2      0.19693E-03
    2009.2      0.33808E-03
    2059.2      0.55611E-03
    2109.2      0.88077E-03
    2159.1      0.13443E-02
    2209.1      0.19848E-02
    2259.1      0.28429E-02
    2309.1      0.39625E-02
    2359.1      0.53890E-02
    2409.0      0.71646E-02
    2459.0      0.93328E-02
    2509.0      0.11932E-01
    2559.0      0.14997E-01
    2609.0      0.18558E-01
    2658.9      0.22638E-01
    2708.9      0.27256E-01
    2758.9      0.32422E-01
    2808.9      0.38142E-01
    2858.9      0.44414E-01
    2908.8      0.51234E-01
    2958.8      0.58590E-01
    3008.8      0.66461E-01
    3058.8      0.74832E-01
    3108.8      0.83678E-01
    3158.7      0.92971E-01
    3208.7      0.10268    
    3258.7      0.11278    
    3308.7      0.12323    
    3358.7      0.13401    
    3408.6      0.14508    
    3458.6      0.15641    
    3508.6      0.16796    
    3558.6      0.17971    
    3608.6      0.19162    
    3658.5      0.20366    
    3708.5      0.21581    
    3758.5      0.22804    
    3808.5      0.24033    
    3858.5      0.25264    
    3908.4      0.26497    
    3958.4      0.27727    
    4008.4      0.28955    
    4058.4      0.30177    
    4108.4      0.31393    
    4158.3      0.32602    
    4208.3      0.33800    
    4258.3      0.34988    
    4308.3      0.36164    
    4358.3      0.37327    
    4408.2      0.38477    
    4458.2      0.39612    
    4508.2      0.40731    
    4558.2      0.41836    
    4608.2      0.42924    
    4658.1      0.43995    
    4708.1      0.45049    
    4758.1      0.46086    
    4808.1      0.47107    
    4858.1      0.48109    
    4908.0      0.49093    
    4958.0      0.50061    
    5008.0      0.51010    
    5058.0      0.51940    
    5108.0      0.52854    
    5157.9      0.53749    
    5207.9      0.54628    
    5257.9      0.55488    
    5307.9      0.56332    
    5357.9      0.57159    
    5407.8      0.57968    
    5457.8      0.58761    
    5507.8      0.59537    
    5557.8      0.60297    
    5607.8      0.61041    
    5657.7      0.61770    
    5707.7      0.62483    
    5757.7      0.63181    
    5807.7      0.63864    
    5857.7      0.64532    
    5907.6      0.65186    
    5957.6      0.65825    
    6007.6      0.66451    
    6057.6      0.67064    
    6107.6      0.67663    
    6157.5      0.68249    
    6207.5      0.68822    
    6257.5      0.69383    
    6307.5      0.69931    
    6357.5      0.70468    
    6407.4      0.70993    
    6457.4      0.71507    
    6507.4      0.72009    
    6557.4      0.72501    
    6607.4      0.72982    
    6657.3      0.73453    
    6707.3      0.73913    
    6757.3      0.74363    
    6807.3      0.74804    
    6857.3      0.75235    
    6907.2      0.75657    
    6957.2      0.76071    
    7007.2      0.76475    
    7057.2      0.76870    
    7107.2      0.77257    
    7157.1      0.13168    
    7207.1      0.13627    
    7257.1      0.14090    
    7307.1      0.14558    
    7357.1      0.15032    
    7407.0      0.15511    
    7457.0      0.15995    
    7507.0      0.16484    
    7557.0      0.16976    
    7607.0      0.17473    
    7656.9      0.17973    
    7706.9      0.18477    
    7756.9      0.18985    
    7806.9      0.19495    
    7856.9      0.20009    
    7906.8      0.20525    
    7956.8      0.21044    
    8006.8      0.21565    
    8056.8      0.22087    
    8106.8      0.22613    
    8156.7      0.23139    
    8206.7      0.23667    
    8256.7      0.24197    
    8306.7      0.24727    
    8356.7      0.25258    
    8406.6      0.25790    
    8456.6      0.26322    
    8506.6      0.26855    
    8556.6      0.27389    
    8606.6      0.27922    
    8656.5      0.28455    
    8706.5      0.28987    
    8756.5      0.29519    
    8806.5      0.30051    
    8856.5      0.30581    
    8906.4      0.31111    
    8956.4      0.31640    
    9006.4      0.32167    
    9056.4      0.32694    
    9106.4      0.33220    
    9156.3      0.33743    
    9206.3      0.34266    
    9256.3      0.34786    
    9306.3      0.35304    
    9356.3      0.35821    
    9406.2      0.36336    
    9456.2      0.36848    
    9506.2      0.37358    
    9556.2      0.37866    
    9606.2      0.38372    
    9656.1      0.38876    
    9706.1      0.39377    
    9756.1      0.39875    
    9806.1      0.40370    
    9856.1      0.40863    
    9906.0      0.41352    
    9956.0      0.41840    
    10006.      0.42325    
    10056.      0.42807    
    10106.      0.43286    
    10156.      0.43762    
    10206.      0.44235    
    10256.      0.44705    
    10306.      0.45172    
    10356.      0.45636    
    10406.      0.46096    
    10456.      0.46554    
    10506.      0.47008    
    10556.      0.47459    
    10606.      0.47907    
    10656.      0.48352    
    10706.      0.48793    
    10756.      0.49230    
    10806.      0.49666    
    10856.      0.50097    
    10906.      0.50525    
    10956.      0.50950    
    11006.      0.51371    
    11056.      0.51789    
    11106.      0.52204    
    11156.      0.52616    
    11206.      0.53024    
    11256.      0.53428    
    11305.      0.53830    
    11355.      0.54228    
    11405.      0.54623    
    11455.      0.55014    
    11505.      0.55402    
    11555.      0.55787    
    11605.      0.56169    
    11655.      0.56547    
    11705.      0.56922    
    11755.      0.57293    
    11805.      0.57661    
    11855.      0.58027    
    11905.      0.58389    
    11955.      0.58747    
    12005.      0.59103    
    12055.      0.59455    
    12105.      0.59804    
    12155.      0.60150    
    12205.      0.60492    
    12255.      0.60832    
    12305.      0.61169    
    12355.      0.61503    
    12405.      0.61833    
    12455.      0.62160    
    12505.      0.62485    
    12555.      0.62806    
    12605.      0.63124    
    12655.      0.63440    
    12705.      0.63752    
    12755.      0.64061    
    12805.      0.64368    
    12855.      0.64672    
    12905.      0.64972    
    12955.      0.65270    
    13005.      0.65565    
    13055.      0.65857    
    13105.      0.66147    
    13155.      0.66434    
    13205.      0.66718    
    13255.      0.66999    
    13305.      0.67278    
    13355.      0.67554    
    13405.      0.67827    
    13455.      0.68098    
    13505.      0.68366    
    13555.      0.68632    
    13605.      0.68895    
    13655.      0.69155    
    13705.      0.69413    
    13755.      0.69669    
    13804.      0.69921    
    13854.      0.70172    
    13904.      0.70420    
    13954.      0.70666    
    14004.      0.70909    
    14054.      0.71150    
    14104.      0.71389    
    14154.      0.71625    
    14204.      0.71859    
    14254.      0.72091    
    14304.      0.72320    
    14354.      0.72547    
    14404.      0.72773    
    14454.      0.72996    
    14504.      0.73216    
    14554.      0.73435    
    14604.      0.73651    
    14654.      0.73866    
    14704.      0.74078    
    14754.      0.74288    
    14804.      0.74496    
    14854.      0.74703    
    14904.      0.74907    
    14954.      0.75109    
    15004.      0.75309    
    15054.      0.75508    
    15104.      0.75704    
    15154.      0.75899    
    15204.      0.76091    
    15254.      0.76282    
    15304.      0.76471    
    15354.      0.76658    
    15404.      0.76844    
    15454.      0.77027    
    15504.      0.77209    
    15554.      0.77389    
    15604.      0.77567    
    15654.      0.77744    
    15704.      0.77919    
    15754.      0.78092    
    15804.      0.78263    
    15854.      0.78433    
    15904.      0.78602    
    15954.      0.78768    
    16004.      0.78933    
    16054.      0.79097    
    16104.      0.79259    
    16154.      0.79419    
    16204.      0.79578    
    16253.      0.79735    
    16303.      0.79891    
    16353.      0.80046    
    16403.      0.80199    
    16453.      0.80350    
    16503.      0.80500    
    16553.      0.80649    
    16603.      0.80796    
    16653.      0.80942    
    16703.      0.81086    
    16753.      0.81229    
    16803.      0.81371    
    16853.      0.81511    
    16903.      0.81651    
    16953.      0.81788    
    17003.      0.81925    
    17053.      0.82060    
    17103.      0.82194    
    17153.      0.82327    
    17203.      0.82458    
    17253.      0.82589    
    17303.      0.82718    
    17353.      0.82846    
    17403.      0.82972    
    17453.      0.83098    
    17503.      0.83222    
    17553.      0.83345    
    17603.      0.83467    
    17653.      0.83588    
    17703.      0.83708    
    17753.      0.83827    
    17803.      0.83944    
    17853.      0.84061    
    17903.      0.84177    
    17953.      0.84291    
    18003.      0.84404    
    18053.      0.84517    
    18103.      0.84628    
    18153.      0.84738    
    18203.      0.84848    
    18253.      0.84956    
    18303.      0.85063    
    18353.      0.85170    
    18403.      0.85275    
    18453.      0.85380    
    18503.      0.85483    
    18553.      0.85586    
    18603.      0.85688    
    18653.      0.85788    
    18703.      0.85888    
    18753.      0.85987    
    18802.      0.86085    
    18852.      0.86183    
    18902.      0.86279    
    18952.      0.86375    
    19002.      0.86469    
    19052.      0.86563    
    19102.      0.86656    
    19152.      0.86748    
    19202.      0.86840    
    19252.      0.86930    
    19302.      0.87020    
    19352.      0.87109    
    19402.      0.87197    
    19452.      0.87284    
    19502.      0.87371    
    19552.      0.87457    
    19602.      0.87542    
    19652.      0.87627    
    19702.      0.87710    
    19752.      0.87793    
    19802.      0.87876    
    19852.      0.87957    
    19902.      0.88038    
    19952.      0.88118    
    20002.      0.88198    
    20052.      0.88276    
    20102.      0.88354    
    20152.      0.88432    
    20202.      0.88509    
    20252.      0.88585    
    20302.      0.88660    
    20352.      0.88735    
    20402.      0.88809    
    20452.      0.88883    
    20502.      0.88956    
    20552.      0.89028    
    20602.      0.89100    
    20652.      0.89171    
    20702.      0.89242    
    20752.      0.89312    
    20802.      0.89381    
    20852.      0.89450    
    20902.      0.89518    
    20952.      0.89586    
    21002.      0.89653    
    21052.      0.89719    
    21102.      0.89785    
    21152.      0.89850    
    21202.      0.89915    
    21252.      0.89980    
    21301.      0.90043    
    21351.      0.90107    
    21401.      0.90169    
    21451.      0.90232    
    21501.      0.90293    
    21551.      0.90355    
    21601.      0.90415    
    21651.      0.90476    
    21701.      0.90535    
    21751.      0.90595    
    21801.      0.90653    
    21851.      0.90712    
    21901.      0.90770    
    21951.      0.90827    
    22001.      0.90884    
    22051.      0.90940    
    22101.      0.90996    
    22151.      0.91052    
    22201.      0.91107    
    22251.      0.91161    
    22301.      0.91216    
    22351.      0.91269    
    22401.      0.91323    
    22451.      0.91376    
    22501.      0.91428    
    22551.      0.91480    
    22601.      0.91532    
    22651.      0.91583    
    22701.      0.91634    
    22751.      0.91685    
    22801.      0.91735    
    22851.      0.91784    
    22901.      0.91834    
    22951.      0.91883    
    23001.      0.91931    
    23051.      0.91979    
    23101.      0.92027    
    23151.      0.92074    
    23201.      0.92121    
    23251.      0.92168    
    23301.      0.92214    
    23351.      0.92260    
    23401.      0.92306    
    23451.      0.92351    
    23501.      0.92396    
    23551.      0.92441    
    23601.      0.92485    
    23651.      0.92529    
    23701.      0.92572    
    23750.      0.92616    
    23800.      0.92658    
    23850.      0.92701    
    23900.      0.92743    
    23950.      0.92785    
    24000.      0.92827    
    24050.      0.92868    
    24100.      0.92909    
    24150.      0.92950    
    24200.      0.92990    
    24250.      0.93030    
    24300.      0.93070    
    24350.      0.93109    
    24400.      0.93148    
    24450.      0.93187    
    24500.      0.93226    
    24550.      0.93264    
    24600.      0.93302    
    24650.      0.93340    
    24700.      0.93377    
    24750.      0.93414    
    24800.      0.93451    
    24850.      0.93488    
    24900.      0.93524    
    24950.      0.93560    
    25000.      0.93596    