 Pd Density=12.02 Thickness=69. microns
 Photon Energy (eV), Transmission
    10.000      0.00000    
    59.980      0.00000    
    109.96      0.00000    
    159.94      0.00000    
    209.92      0.00000    
    259.90      0.00000    
    309.88      0.00000    
    359.86      0.00000    
    409.84      0.00000    
    459.82      0.00000    
    509.80      0.00000    
    559.78      0.00000    
    609.76      0.00000    
    659.74      0.00000    
    709.72      0.00000    
    759.70      0.00000    
    809.68      0.00000    
    859.66      0.00000    
    909.64      0.00000    
    959.62      0.00000    
    1009.6      0.00000    
    1059.6      0.00000    
    1109.6      0.00000    
    1159.5      0.00000    
    1209.5      0.00000    
    1259.5      0.00000    
    1309.5      0.00000    
    1359.5      0.00000    
    1409.4      0.00000    
    1459.4      0.00000    
    1509.4      0.00000    
    1559.4      0.00000    
    1609.4      0.00000    
    1659.3      0.00000    
    1709.3      0.00000    
    1759.3      0.00000    
    1809.3      0.00000    
    1859.3      0.00000    
    1909.2      0.00000    
    1959.2      0.00000    
    2009.2      0.00000    
    2059.2      0.14013E-44
    2109.2      0.70625E-42
    2159.1      0.16516E-39
    2209.1      0.26343E-37
    2259.1      0.29355E-35
    2309.1      0.23565E-33
    2359.1      0.14072E-31
    2409.0      0.63914E-30
    2459.0      0.22603E-28
    2509.0      0.63661E-27
    2559.0      0.14518E-25
    2609.0      0.27237E-24
    2658.9      0.42691E-23
    2708.9      0.56843E-22
    2758.9      0.64940E-21
    2808.9      0.64356E-20
    2858.9      0.55908E-19
    2908.8      0.43031E-18
    2958.8      0.29557E-17
    3008.8      0.18259E-16
    3058.8      0.10226E-15
    3108.8      0.52281E-15
    3158.7      0.24346E-14
    3208.7      0.00000    
    3258.7      0.00000    
    3308.7      0.42039E-44
    3358.7      0.00000    
    3408.6      0.00000    
    3458.6      0.00000    
    3508.6      0.00000    
    3558.6      0.00000    
    3608.6      0.00000    
    3658.5      0.00000    
    3708.5      0.00000    
    3758.5      0.00000    
    3808.5      0.00000    
    3858.5      0.00000    
    3908.4      0.00000    
    3958.4      0.28026E-44
    4008.4      0.47644E-43
    4058.4      0.90384E-42
    4108.4      0.15267E-40
    4158.3      0.23296E-39
    4208.3      0.32141E-38
    4258.3      0.40164E-37
    4308.3      0.45666E-36
    4358.3      0.48005E-35
    4408.2      0.46291E-34
    4458.2      0.41095E-33
    4508.2      0.33757E-32
    4558.2      0.25783E-31
    4608.2      0.18331E-30
    4658.1      0.12182E-29
    4708.1      0.75941E-29
    4758.1      0.44405E-28
    4808.1      0.24438E-27
    4858.1      0.12712E-26
    4908.0      0.62498E-26
    4958.0      0.29171E-25
    5008.0      0.12942E-24
    5058.0      0.54608E-24
    5108.0      0.22016E-23
    5157.9      0.84760E-23
    5207.9      0.31236E-22
    5257.9      0.11056E-21
    5307.9      0.37558E-21
    5357.9      0.12283E-20
    5407.8      0.38679E-20
    5457.8      0.11756E-19
    5507.8      0.34527E-19
    5557.8      0.98056E-19
    5607.8      0.26999E-18
    5657.7      0.72034E-18
    5707.7      0.18686E-17
    5757.7      0.47070E-17
    5807.7      0.11539E-16
    5857.7      0.27540E-16
    5907.6      0.64103E-16
    5957.6      0.14554E-15
    6007.6      0.32266E-15
    6057.6      0.69922E-15
    6107.6      0.14822E-14
    6157.5      0.30766E-14
    6207.5      0.62562E-14
    6257.5      0.12470E-13
    6307.5      0.24376E-13
    6357.5      0.46794E-13
    6407.4      0.88237E-13
    6457.4      0.16355E-12
    6507.4      0.29807E-12
    6557.4      0.53455E-12
    6607.4      0.94384E-12
    6657.3      0.16413E-11
    6707.3      0.28129E-11
    6757.3      0.47518E-11
    6807.3      0.79201E-11
    6857.3      0.13023E-10
    6907.2      0.21156E-10
    6957.2      0.33931E-10
    7007.2      0.53783E-10
    7057.2      0.84248E-10
    7107.2      0.13049E-09
    7157.1      0.19990E-09
    7207.1      0.30299E-09
    7257.1      0.45471E-09
    7307.1      0.67547E-09
    7357.1      0.99382E-09
    7407.0      0.14482E-08
    7457.0      0.20918E-08
    7507.0      0.29952E-08
    7557.0      0.42512E-08
    7607.0      0.59838E-08
    7656.9      0.83535E-08
    7706.9      0.11574E-07
    7756.9      0.15913E-07
    7806.9      0.21720E-07
    7856.9      0.29440E-07
    7906.8      0.39622E-07
    7956.8      0.52962E-07
    8006.8      0.70322E-07
    8056.8      0.92774E-07
    8106.8      0.12167E-06
    8156.7      0.15858E-06
    8206.7      0.20548E-06
    8256.7      0.26474E-06
    8306.7      0.33915E-06
    8356.7      0.43223E-06
    8406.6      0.54793E-06
    8456.6      0.69100E-06
    8506.6      0.86712E-06
    8556.6      0.10828E-05
    8606.6      0.13458E-05
    8656.5      0.16653E-05
    8706.5      0.20511E-05
    8756.5      0.25155E-05
    8806.5      0.30720E-05
    8856.5      0.37357E-05
    8906.4      0.45257E-05
    8956.4      0.54611E-05
    9006.4      0.65643E-05
    9056.4      0.78594E-05
    9106.4      0.93755E-05
    9156.3      0.11144E-04
    9206.3      0.13204E-04
    9256.3      0.15590E-04
    9306.3      0.18348E-04
    9356.3      0.21523E-04
    9406.2      0.25169E-04
    9456.2      0.29342E-04
    9506.2      0.34113E-04
    9556.2      0.39543E-04
    9606.2      0.45706E-04
    9656.1      0.52678E-04
    9706.1      0.60547E-04
    9756.1      0.69408E-04
    9806.1      0.79366E-04
    9856.1      0.90523E-04
    9906.0      0.10299E-03
    9956.0      0.11691E-03
    10006.      0.13239E-03
    10056.      0.14957E-03
    10106.      0.16861E-03
    10156.      0.18966E-03
    10206.      0.21288E-03
    10256.      0.23843E-03
    10306.      0.26653E-03
    10356.      0.29733E-03
    10406.      0.33104E-03
    10456.      0.36789E-03
    10506.      0.40805E-03
    10556.      0.45178E-03
    10606.      0.49931E-03
    10656.      0.55089E-03
    10706.      0.60673E-03
    10756.      0.66713E-03
    10806.      0.73235E-03
    10856.      0.80266E-03
    10906.      0.87831E-03
    10956.      0.95966E-03
    11006.      0.10470E-02
    11056.      0.11405E-02
    11106.      0.12406E-02
    11156.      0.13477E-02
    11206.      0.14619E-02
    11256.      0.15837E-02
    11305.      0.17134E-02
    11355.      0.18514E-02
    11405.      0.19979E-02
    11455.      0.21533E-02
    11505.      0.23179E-02
    11555.      0.24922E-02
    11605.      0.26764E-02
    11655.      0.28710E-02
    11705.      0.30762E-02
    11755.      0.32925E-02
    11805.      0.35202E-02
    11855.      0.37597E-02
    11905.      0.40114E-02
    11955.      0.42756E-02
    12005.      0.45526E-02
    12055.      0.48429E-02
    12105.      0.51466E-02
    12155.      0.54643E-02
    12205.      0.57962E-02
    12255.      0.61429E-02
    12305.      0.65046E-02
    12355.      0.68815E-02
    12405.      0.72742E-02
    12455.      0.76827E-02
    12505.      0.81075E-02
    12555.      0.85488E-02
    12605.      0.90071E-02
    12655.      0.94826E-02
    12705.      0.99756E-02
    12755.      0.10486E-01
    12805.      0.11015E-01
    12855.      0.11563E-01
    12905.      0.12128E-01
    12955.      0.12713E-01
    13005.      0.13317E-01
    13055.      0.13940E-01
    13105.      0.14583E-01
    13155.      0.15246E-01
    13205.      0.15929E-01
    13255.      0.16632E-01
    13305.      0.17355E-01
    13355.      0.18099E-01
    13405.      0.18863E-01
    13455.      0.19649E-01
    13505.      0.20456E-01
    13555.      0.21284E-01
    13605.      0.22133E-01
    13655.      0.23004E-01
    13705.      0.23896E-01
    13755.      0.24810E-01
    13804.      0.25746E-01
    13854.      0.26703E-01
    13904.      0.27683E-01
    13954.      0.28684E-01
    14004.      0.29708E-01
    14054.      0.30753E-01
    14104.      0.31821E-01
    14154.      0.32910E-01
    14204.      0.34022E-01
    14254.      0.35155E-01
    14304.      0.36311E-01
    14354.      0.37489E-01
    14404.      0.38689E-01
    14454.      0.39911E-01
    14504.      0.41155E-01
    14554.      0.42421E-01
    14604.      0.43709E-01
    14654.      0.45017E-01
    14704.      0.46348E-01
    14754.      0.47700E-01
    14804.      0.49073E-01
    14854.      0.50468E-01
    14904.      0.51885E-01
    14954.      0.53322E-01
    15004.      0.54780E-01
    15054.      0.56260E-01
    15104.      0.57760E-01
    15154.      0.59280E-01
    15204.      0.60821E-01
    15254.      0.62382E-01
    15304.      0.63963E-01
    15354.      0.65564E-01
    15404.      0.67185E-01
    15454.      0.68826E-01
    15504.      0.70486E-01
    15554.      0.72164E-01
    15604.      0.73862E-01
    15654.      0.75578E-01
    15704.      0.77313E-01
    15754.      0.79066E-01
    15804.      0.80837E-01
    15854.      0.82626E-01
    15904.      0.84431E-01
    15954.      0.86255E-01
    16004.      0.88095E-01
    16054.      0.89953E-01
    16104.      0.91827E-01
    16154.      0.93717E-01
    16204.      0.95624E-01
    16253.      0.97547E-01
    16303.      0.99485E-01
    16353.      0.10144    
    16403.      0.10341    
    16453.      0.10539    
    16503.      0.10739    
    16553.      0.10940    
    16603.      0.11143    
    16653.      0.11347    
    16703.      0.11552    
    16753.      0.11759    
    16803.      0.11967    
    16853.      0.12177    
    16903.      0.12387    
    16953.      0.12599    
    17003.      0.12812    
    17053.      0.13026    
    17103.      0.13242    
    17153.      0.13458    
    17203.      0.13676    
    17253.      0.13894    
    17303.      0.14114    
    17353.      0.14334    
    17403.      0.14556    
    17453.      0.14779    
    17503.      0.15002    
    17553.      0.15227    
    17603.      0.15452    
    17653.      0.15678    
    17703.      0.15905    
    17753.      0.16133    
    17803.      0.16362    
    17853.      0.16591    
    17903.      0.16821    
    17953.      0.17052    
    18003.      0.17284    
    18053.      0.17516    
    18103.      0.17748    
    18153.      0.17982    
    18203.      0.18216    
    18253.      0.18451    
    18303.      0.18686    
    18353.      0.18921    
    18403.      0.19157    
    18453.      0.19394    
    18503.      0.19631    
    18553.      0.19868    
    18603.      0.20106    
    18653.      0.20345    
    18703.      0.20583    
    18753.      0.20822    
    18802.      0.21062    
    18852.      0.21301    
    18902.      0.21541    
    18952.      0.21781    
    19002.      0.22021    
    19052.      0.22262    
    19102.      0.22503    
    19152.      0.22744    
    19202.      0.22985    
    19252.      0.23226    
    19302.      0.23467    
    19352.      0.23709    
    19402.      0.23950    
    19452.      0.24192    
    19502.      0.24434    
    19552.      0.24675    
    19602.      0.24917    
    19652.      0.25159    
    19702.      0.25400    
    19752.      0.25642    
    19802.      0.25884    
    19852.      0.26125    
    19902.      0.26366    
    19952.      0.26608    
    20002.      0.26849    
    20052.      0.27090    
    20102.      0.27331    
    20152.      0.27572    
    20202.      0.27813    
    20252.      0.28053    
    20302.      0.28293    
    20352.      0.28533    
    20402.      0.28773    
    20452.      0.29013    
    20502.      0.29252    
    20552.      0.29491    
    20602.      0.29730    
    20652.      0.29968    
    20702.      0.30207    
    20752.      0.30445    
    20802.      0.30682    
    20852.      0.30919    
    20902.      0.31156    
    20952.      0.31393    
    21002.      0.31629    
    21052.      0.31865    
    21102.      0.32100    
    21152.      0.32335    
    21202.      0.32569    
    21252.      0.32804    
    21301.      0.33037    
    21351.      0.33271    
    21401.      0.33504    
    21451.      0.33736    
    21501.      0.33968    
    21551.      0.34199    
    21601.      0.34430    
    21651.      0.34660    
    21701.      0.34890    
    21751.      0.35120    
    21801.      0.35349    
    21851.      0.35577    
    21901.      0.35805    
    21951.      0.36033    
    22001.      0.36259    
    22051.      0.36486    
    22101.      0.36712    
    22151.      0.36937    
    22201.      0.37161    
    22251.      0.37385    
    22301.      0.37609    
    22351.      0.37832    
    22401.      0.38054    
    22451.      0.38276    
    22501.      0.38497    
    22551.      0.38718    
    22601.      0.38937    
    22651.      0.39157    
    22701.      0.39375    
    22751.      0.39594    
    22801.      0.39811    
    22851.      0.40028    
    22901.      0.40244    
    22951.      0.40459    
    23001.      0.40674    
    23051.      0.40889    
    23101.      0.41102    
    23151.      0.41315    
    23201.      0.41528    
    23251.      0.41739    
    23301.      0.41950    
    23351.      0.42160    
    23401.      0.42370    
    23451.      0.42579    
    23501.      0.42787    
    23551.      0.42995    
    23601.      0.43202    
    23651.      0.43408    
    23701.      0.43614    
    23750.      0.43819    
    23800.      0.44023    
    23850.      0.44227    
    23900.      0.44429    
    23950.      0.44632    
    24000.      0.44833    
    24050.      0.45034    
    24100.      0.45235    
    24150.      0.45434    
    24200.      0.45633    
    24250.      0.45832    
    24300.      0.46029    
    24350.      0.24088    
    24400.      0.78542E-02
    24450.      0.80528E-02
    24500.      0.82549E-02
    24550.      0.84607E-02
    24600.      0.86699E-02
    24650.      0.88829E-02
    24700.      0.90995E-02
    24750.      0.93198E-02
    24800.      0.95447E-02
    24850.      0.97734E-02
    24900.      0.10006E-01
    24950.      0.10242E-01
    25000.      0.10482E-01