 Sn Density=7.3 Thickness=90. microns
 Photon Energy (eV), Transmission
    10.000      0.00000    
    59.980      0.00000    
    109.96      0.00000    
    159.94      0.00000    
    209.92      0.00000    
    259.90      0.00000    
    309.88      0.00000    
    359.86      0.00000    
    409.84      0.00000    
    459.82      0.00000    
    509.80      0.00000    
    559.78      0.00000    
    609.76      0.00000    
    659.74      0.00000    
    709.72      0.00000    
    759.70      0.00000    
    809.68      0.00000    
    859.66      0.00000    
    909.64      0.00000    
    959.62      0.00000    
    1009.6      0.00000    
    1059.6      0.00000    
    1109.6      0.00000    
    1159.5      0.00000    
    1209.5      0.00000    
    1259.5      0.00000    
    1309.5      0.00000    
    1359.5      0.00000    
    1409.4      0.00000    
    1459.4      0.00000    
    1509.4      0.00000    
    1559.4      0.00000    
    1609.4      0.00000    
    1659.3      0.00000    
    1709.3      0.00000    
    1759.3      0.00000    
    1809.3      0.00000    
    1859.3      0.00000    
    1909.2      0.00000    
    1959.2      0.00000    
    2009.2      0.00000    
    2059.2      0.14013E-44
    2109.2      0.46803E-42
    2159.1      0.94129E-40
    2209.1      0.12947E-37
    2259.1      0.12562E-35
    2309.1      0.89200E-34
    2359.1      0.47549E-32
    2409.0      0.19454E-30
    2459.0      0.62489E-29
    2509.0      0.16131E-27
    2559.0      0.33928E-26
    2609.0      0.59133E-25
    2658.9      0.86669E-24
    2708.9      0.10840E-22
    2758.9      0.11690E-21
    2808.9      0.10993E-20
    2858.9      0.91038E-20
    2908.8      0.67032E-19
    2958.8      0.44229E-18
    3008.8      0.26347E-17
    3058.8      0.14270E-16
    3108.8      0.70751E-16
    3158.7      0.32293E-15
    3208.7      0.13640E-14
    3258.7      0.53584E-14
    3308.7      0.19676E-13
    3358.7      0.67790E-13
    3408.6      0.21999E-12
    3458.6      0.67489E-12
    3508.6      0.19635E-11
    3558.6      0.54374E-11
    3608.6      0.14373E-10
    3658.5      0.36360E-10
    3708.5      0.88226E-10
    3758.5      0.20588E-09
    3808.5      0.46301E-09
    3858.5      0.10052E-08
    3908.4      0.21109E-08
    3958.4      0.48917E-27
    4008.4      0.36532E-26
    4058.4      0.24986E-25
    4108.4      0.15724E-24
    4158.3      0.94781E-33
    4208.3      0.92615E-32
    4258.3      0.82246E-31
    4308.3      0.66683E-30
    4358.3      0.49547E-29
    4408.2      0.34131E-28
    4458.2      0.21832E-27
    4508.2      0.43944E-30
    4558.2      0.26371E-29
    4608.2      0.14888E-28
    4658.1      0.79527E-28
    4708.1      0.40410E-27
    4758.1      0.19481E-26
    4808.1      0.89389E-26
    4858.1      0.39175E-25
    4908.0      0.16374E-24
    4958.0      0.65560E-24
    5008.0      0.25166E-23
    5058.0      0.92556E-23
    5108.0      0.32773E-22
    5157.9      0.11156E-21
    5207.9      0.36590E-21
    5257.9      0.11592E-20
    5307.9      0.35433E-20
    5357.9      0.10499E-19
    5407.8      0.30093E-19
    5457.8      0.83640E-19
    5507.8      0.22560E-18
    5557.8      0.59069E-18
    5607.8      0.15064E-17
    5657.7      0.37353E-17
    5707.7      0.90376E-17
    5757.7      0.21301E-16
    5807.7      0.49037E-16
    5857.7      0.11022E-15
    5907.6      0.24224E-15
    5957.6      0.52080E-15
    6007.6      0.10962E-14
    6057.6      0.22610E-14
    6107.6      0.45717E-14
    6157.5      0.90712E-14
    6207.5      0.17666E-13
    6257.5      0.33799E-13
    6307.5      0.63536E-13
    6357.5      0.11747E-12
    6407.4      0.21365E-12
    6457.4      0.38261E-12
    6507.4      0.67484E-12
    6557.4      0.11730E-11
    6607.4      0.20102E-11
    6657.3      0.33968E-11
    6707.3      0.56638E-11
    6757.3      0.93189E-11
    6807.3      0.15150E-10
    6857.3      0.24318E-10
    6907.2      0.38603E-10
    6957.2      0.60548E-10
    7007.2      0.93956E-10
    7057.2      0.14420E-09
    7107.2      0.21903E-09
    7157.1      0.32934E-09
    7207.1      0.49027E-09
    7257.1      0.72298E-09
    7307.1      0.10559E-08
    7357.1      0.15294E-08
    7407.0      0.21953E-08
    7457.0      0.31247E-08
    7507.0      0.44109E-08
    7557.0      0.61757E-08
    7607.0      0.85828E-08
    7656.9      0.11835E-07
    7706.9      0.16204E-07
    7756.9      0.22026E-07
    7806.9      0.29729E-07
    7856.9      0.39859E-07
    7906.8      0.53082E-07
    7956.8      0.70265E-07
    8006.8      0.92437E-07
    8056.8      0.12086E-06
    8106.8      0.15710E-06
    8156.7      0.20301E-06
    8206.7      0.26090E-06
    8256.7      0.33350E-06
    8306.7      0.42398E-06
    8356.7      0.53644E-06
    8406.6      0.67530E-06
    8456.6      0.84588E-06
    8506.6      0.10546E-05
    8556.6      0.13086E-05
    8606.6      0.16166E-05
    8656.5      0.19886E-05
    8706.5      0.24354E-05
    8756.5      0.29707E-05
    8806.5      0.36090E-05
    8856.5      0.43666E-05
    8906.4      0.52633E-05
    8956.4      0.63198E-05
    9006.4      0.75601E-05
    9056.4      0.90146E-05
    9106.4      0.10711E-04
    9156.3      0.12682E-04
    9206.3      0.14966E-04
    9256.3      0.17604E-04
    9306.3      0.20640E-04
    9356.3      0.24128E-04
    9406.2      0.28118E-04
    9456.2      0.32671E-04
    9506.2      0.37859E-04
    9556.2      0.43746E-04
    9606.2      0.50409E-04
    9656.1      0.57936E-04
    9706.1      0.66411E-04
    9756.1      0.75928E-04
    9806.1      0.86585E-04
    9856.1      0.98494E-04
    9906.0      0.11177E-03
    9956.0      0.12657E-03
    10006.      0.14301E-03
    10056.      0.16121E-03
    10106.      0.18135E-03
    10156.      0.20357E-03
    10206.      0.22803E-03
    10256.      0.25492E-03
    10306.      0.28442E-03
    10356.      0.31673E-03
    10406.      0.35201E-03
    10456.      0.39054E-03
    10506.      0.43248E-03
    10556.      0.47806E-03
    10606.      0.52755E-03
    10656.      0.58119E-03
    10706.      0.63919E-03
    10756.      0.70184E-03
    10806.      0.76943E-03
    10856.      0.84220E-03
    10906.      0.92041E-03
    10956.      0.10044E-02
    11006.      0.10946E-02
    11056.      0.11910E-02
    11106.      0.12941E-02
    11156.      0.14043E-02
    11206.      0.15218E-02
    11256.      0.16470E-02
    11305.      0.17801E-02
    11355.      0.19217E-02
    11405.      0.20718E-02
    11455.      0.22310E-02
    11505.      0.23996E-02
    11555.      0.25779E-02
    11605.      0.27662E-02
    11655.      0.29650E-02
    11705.      0.31747E-02
    11755.      0.33954E-02
    11805.      0.36277E-02
    11855.      0.38719E-02
    11905.      0.41285E-02
    11955.      0.43976E-02
    12005.      0.46796E-02
    12055.      0.49750E-02
    12105.      0.52840E-02
    12155.      0.56069E-02
    12205.      0.59443E-02
    12255.      0.62965E-02
    12305.      0.66640E-02
    12355.      0.70467E-02
    12405.      0.74453E-02
    12455.      0.78598E-02
    12505.      0.82907E-02
    12555.      0.87383E-02
    12605.      0.92029E-02
    12655.      0.96849E-02
    12705.      0.10185E-01
    12755.      0.10702E-01
    12805.      0.11238E-01
    12855.      0.11792E-01
    12905.      0.12365E-01
    12955.      0.12957E-01
    13005.      0.13568E-01
    13055.      0.14198E-01
    13105.      0.14849E-01
    13155.      0.15519E-01
    13205.      0.16210E-01
    13255.      0.16921E-01
    13305.      0.17652E-01
    13355.      0.18404E-01
    13405.      0.19176E-01
    13455.      0.19970E-01
    13505.      0.20786E-01
    13555.      0.21622E-01
    13605.      0.22480E-01
    13655.      0.23360E-01
    13705.      0.24261E-01
    13755.      0.25184E-01
    13804.      0.26129E-01
    13854.      0.27096E-01
    13904.      0.28085E-01
    13954.      0.29096E-01
    14004.      0.30129E-01
    14054.      0.31185E-01
    14104.      0.32263E-01
    14154.      0.33363E-01
    14204.      0.34485E-01
    14254.      0.35629E-01
    14304.      0.36796E-01
    14354.      0.37984E-01
    14404.      0.39196E-01
    14454.      0.40429E-01
    14504.      0.41685E-01
    14554.      0.42962E-01
    14604.      0.44261E-01
    14654.      0.45582E-01
    14704.      0.46925E-01
    14754.      0.48289E-01
    14804.      0.49675E-01
    14854.      0.51083E-01
    14904.      0.52512E-01
    14954.      0.53963E-01
    15004.      0.55435E-01
    15054.      0.56928E-01
    15104.      0.58441E-01
    15154.      0.59976E-01
    15204.      0.61531E-01
    15254.      0.63106E-01
    15304.      0.64702E-01
    15354.      0.66318E-01
    15404.      0.67954E-01
    15454.      0.69609E-01
    15504.      0.71284E-01
    15554.      0.72978E-01
    15604.      0.74691E-01
    15654.      0.76424E-01
    15704.      0.78174E-01
    15754.      0.79944E-01
    15804.      0.81731E-01
    15854.      0.83537E-01
    15904.      0.85360E-01
    15954.      0.87201E-01
    16004.      0.89059E-01
    16054.      0.90934E-01
    16104.      0.92826E-01
    16154.      0.94735E-01
    16204.      0.96660E-01
    16253.      0.98601E-01
    16303.      0.10056    
    16353.      0.10253    
    16403.      0.10452    
    16453.      0.10652    
    16503.      0.10854    
    16553.      0.11057    
    16603.      0.11262    
    16653.      0.11468    
    16703.      0.11676    
    16753.      0.11884    
    16803.      0.12094    
    16853.      0.12306    
    16903.      0.12519    
    16953.      0.12733    
    17003.      0.12948    
    17053.      0.13164    
    17103.      0.13382    
    17153.      0.13601    
    17203.      0.13820    
    17253.      0.14041    
    17303.      0.14263    
    17353.      0.14486    
    17403.      0.14710    
    17453.      0.14935    
    17503.      0.15161    
    17553.      0.15388    
    17603.      0.15616    
    17653.      0.15844    
    17703.      0.16074    
    17753.      0.16304    
    17803.      0.16535    
    17853.      0.16767    
    17903.      0.17000    
    17953.      0.17234    
    18003.      0.17468    
    18053.      0.17702    
    18103.      0.17938    
    18153.      0.18174    
    18203.      0.18411    
    18253.      0.18648    
    18303.      0.18886    
    18353.      0.19124    
    18403.      0.19363    
    18453.      0.19602    
    18503.      0.19842    
    18553.      0.20082    
    18603.      0.20323    
    18653.      0.20564    
    18703.      0.20805    
    18753.      0.21047    
    18802.      0.21289    
    18852.      0.21531    
    18902.      0.21774    
    18952.      0.22017    
    19002.      0.22260    
    19052.      0.22504    
    19102.      0.22747    
    19152.      0.22991    
    19202.      0.23235    
    19252.      0.23480    
    19302.      0.23724    
    19352.      0.23968    
    19402.      0.24213    
    19452.      0.24457    
    19502.      0.24702    
    19552.      0.24947    
    19602.      0.25191    
    19652.      0.25436    
    19702.      0.25681    
    19752.      0.25925    
    19802.      0.26170    
    19852.      0.26414    
    19902.      0.26659    
    19952.      0.26903    
    20002.      0.27147    
    20052.      0.27392    
    20102.      0.27636    
    20152.      0.27880    
    20202.      0.28123    
    20252.      0.28367    
    20302.      0.28610    
    20352.      0.28853    
    20402.      0.29096    
    20452.      0.29339    
    20502.      0.29582    
    20552.      0.29824    
    20602.      0.30066    
    20652.      0.30307    
    20702.      0.30549    
    20752.      0.30790    
    20802.      0.31030    
    20852.      0.31271    
    20902.      0.31511    
    20952.      0.31750    
    21002.      0.31990    
    21052.      0.32229    
    21102.      0.32467    
    21152.      0.32705    
    21202.      0.32943    
    21252.      0.33180    
    21301.      0.33417    
    21351.      0.33653    
    21401.      0.33889    
    21451.      0.34125    
    21501.      0.34360    
    21551.      0.34594    
    21601.      0.34828    
    21651.      0.35062    
    21701.      0.35295    
    21751.      0.35528    
    21801.      0.35760    
    21851.      0.35991    
    21901.      0.36222    
    21951.      0.36453    
    22001.      0.36683    
    22051.      0.36912    
    22101.      0.37141    
    22151.      0.37369    
    22201.      0.37597    
    22251.      0.37824    
    22301.      0.38050    
    22351.      0.38277    
    22401.      0.38502    
    22451.      0.38727    
    22501.      0.38951    
    22551.      0.39174    
    22601.      0.39397    
    22651.      0.39620    
    22701.      0.39841    
    22751.      0.40063    
    22801.      0.40283    
    22851.      0.40503    
    22901.      0.40722    
    22951.      0.40941    
    23001.      0.41158    
    23051.      0.41376    
    23101.      0.41592    
    23151.      0.41808    
    23201.      0.42024    
    23251.      0.42238    
    23301.      0.42452    
    23351.      0.42665    
    23401.      0.42878    
    23451.      0.43090    
    23501.      0.43301    
    23551.      0.43512    
    23601.      0.43721    
    23651.      0.43931    
    23701.      0.44139    
    23750.      0.44347    
    23800.      0.44554    
    23850.      0.44760    
    23900.      0.44966    
    23950.      0.45171    
    24000.      0.45376    
    24050.      0.45579    
    24100.      0.45782    
    24150.      0.45984    
    24200.      0.46186    
    24250.      0.46386    
    24300.      0.46587    
    24350.      0.46786    
    24400.      0.46985    
    24450.      0.47183    
    24500.      0.47380    
    24550.      0.47576    
    24600.      0.47772    
    24650.      0.47967    
    24700.      0.48162    
    24750.      0.48355    
    24800.      0.48548    
    24850.      0.48740    
    24900.      0.48932    
    24950.      0.49123    
    25000.      0.49313    