 V Density=6.11 Thickness=10.8 microns
 Photon Energy (eV), Transmission
    10.000      0.00000    
    59.980      0.00000    
    109.96      0.00000    
    159.94      0.00000    
    209.92      0.00000    
    259.90      0.32125E-32
    309.88      0.32619E-23
    359.86      0.38873E-17
    409.84      0.57528E-13
    459.82      0.65837E-10
    509.80      0.51039E-08
    559.78      0.00000    
    609.76      0.00000    
    659.74      0.00000    
    709.72      0.15228E-40
    759.70      0.10333E-34
    809.68      0.64152E-30
    859.66      0.56549E-26
    909.64      0.10599E-22
    959.62      0.61584E-20
    1009.6      0.13479E-17
    1059.6      0.13141E-15
    1109.6      0.67579E-14
    1159.5      0.19625E-12
    1209.5      0.35674E-11
    1259.5      0.44425E-10
    1309.5      0.41037E-09
    1359.5      0.28786E-08
    1409.4      0.15935E-07
    1459.4      0.72207E-07
    1509.4      0.27977E-06
    1559.4      0.94849E-06
    1609.4      0.28184E-05
    1659.3      0.74643E-05
    1709.3      0.17890E-04
    1759.3      0.39481E-04
    1809.3      0.81040E-04
    1859.3      0.15545E-03
    1909.2      0.28070E-03
    1959.2      0.48036E-03
    2009.2      0.78281E-03
    2059.2      0.12248E-02
    2109.2      0.18500E-02
    2159.1      0.27015E-02
    2209.1      0.38274E-02
    2259.1      0.52766E-02
    2309.1      0.70974E-02
    2359.1      0.93362E-02
    2409.0      0.12036E-01
    2459.0      0.15232E-01
    2509.0      0.18959E-01
    2559.0      0.23239E-01
    2609.0      0.28091E-01
    2658.9      0.33527E-01
    2708.9      0.39551E-01
    2758.9      0.46156E-01
    2808.9      0.53338E-01
    2858.9      0.61079E-01
    2908.8      0.69364E-01
    2958.8      0.78166E-01
    3008.8      0.87454E-01
    3058.8      0.97205E-01
    3108.8      0.10738    
    3158.7      0.11795    
    3208.7      0.12888    
    3258.7      0.14013    
    3308.7      0.15167    
    3358.7      0.16347    
    3408.6      0.17548    
    3458.6      0.18767    
    3508.6      0.20003    
    3558.6      0.21250    
    3608.6      0.22507    
    3658.5      0.23770    
    3708.5      0.25037    
    3758.5      0.26306    
    3808.5      0.27574    
    3858.5      0.28840    
    3908.4      0.30101    
    3958.4      0.31355    
    4008.4      0.32601    
    4058.4      0.33838    
    4108.4      0.35063    
    4158.3      0.36278    
    4208.3      0.37479    
    4258.3      0.38665    
    4308.3      0.39836    
    4358.3      0.40992    
    4408.2      0.42132    
    4458.2      0.43255    
    4508.2      0.44362    
    4558.2      0.45450    
    4608.2      0.46520    
    4658.1      0.47573    
    4708.1      0.48607    
    4758.1      0.49622    
    4808.1      0.50618    
    4858.1      0.51597    
    4908.0      0.52557    
    4958.0      0.53499    
    5008.0      0.54422    
    5058.0      0.55327    
    5108.0      0.56214    
    5157.9      0.57083    
    5207.9      0.57934    
    5257.9      0.58768    
    5307.9      0.59584    
    5357.9      0.60384    
    5407.8      0.61166    
    5457.8      0.61930    
    5507.8      0.19744E-01
    5557.8      0.21497E-01
    5607.8      0.23352E-01
    5657.7      0.25306E-01
    5707.7      0.27371E-01
    5757.7      0.29538E-01
    5807.7      0.31814E-01
    5857.7      0.34196E-01
    5907.6      0.36687E-01
    5957.6      0.39286E-01
    6007.6      0.41994E-01
    6057.6      0.44812E-01
    6107.6      0.47738E-01
    6157.5      0.50772E-01
    6207.5      0.53912E-01
    6257.5      0.57160E-01
    6307.5      0.60511E-01
    6357.5      0.63968E-01
    6407.4      0.67525E-01
    6457.4      0.71185E-01
    6507.4      0.74944E-01
    6557.4      0.78801E-01
    6607.4      0.82754E-01
    6657.3      0.86798E-01
    6707.3      0.90935E-01
    6757.3      0.95155E-01
    6807.3      0.99466E-01
    6857.3      0.10385    
    6907.2      0.10833    
    6957.2      0.11289    
    7007.2      0.11752    
    7057.2      0.12222    
    7107.2      0.12699    
    7157.1      0.13183    
    7207.1      0.13673    
    7257.1      0.14170    
    7307.1      0.14673    
    7357.1      0.15181    
    7407.0      0.15694    
    7457.0      0.16213    
    7507.0      0.16736    
    7557.0      0.17263    
    7607.0      0.17795    
    7656.9      0.18331    
    7706.9      0.18870    
    7756.9      0.19413    
    7806.9      0.19958    
    7856.9      0.20507    
    7906.8      0.21058    
    7956.8      0.21612    
    8006.8      0.22168    
    8056.8      0.22725    
    8106.8      0.23285    
    8156.7      0.23845    
    8206.7      0.24407    
    8256.7      0.24969    
    8306.7      0.25532    
    8356.7      0.26096    
    8406.6      0.26661    
    8456.6      0.27225    
    8506.6      0.27789    
    8556.6      0.28353    
    8606.6      0.28916    
    8656.5      0.29479    
    8706.5      0.30040    
    8756.5      0.30602    
    8806.5      0.31161    
    8856.5      0.31720    
    8906.4      0.32277    
    8956.4      0.32832    
    9006.4      0.33385    
    9056.4      0.33937    
    9106.4      0.34488    
    9156.3      0.35036    
    9206.3      0.35582    
    9256.3      0.36125    
    9306.3      0.36666    
    9356.3      0.37205    
    9406.2      0.37742    
    9456.2      0.38275    
    9506.2      0.38806    
    9556.2      0.39334    
    9606.2      0.39858    
    9656.1      0.40380    
    9706.1      0.40899    
    9756.1      0.41414    
    9806.1      0.41927    
    9856.1      0.42436    
    9906.0      0.42942    
    9956.0      0.43445    
    10006.      0.43945    
    10056.      0.44440    
    10106.      0.44933    
    10156.      0.45423    
    10206.      0.45908    
    10256.      0.46390    
    10306.      0.46869    
    10356.      0.47344    
    10406.      0.47815    
    10456.      0.48283    
    10506.      0.48747    
    10556.      0.49207    
    10606.      0.49664    
    10656.      0.50117    
    10706.      0.50566    
    10756.      0.51012    
    10806.      0.51454    
    10856.      0.51892    
    10906.      0.52326    
    10956.      0.52757    
    11006.      0.53184    
    11056.      0.53608    
    11106.      0.54027    
    11156.      0.54443    
    11206.      0.54855    
    11256.      0.55264    
    11305.      0.55669    
    11355.      0.56070    
    11405.      0.56467    
    11455.      0.56861    
    11505.      0.57252    
    11555.      0.57638    
    11605.      0.58021    
    11655.      0.58400    
    11705.      0.58776    
    11755.      0.59149    
    11805.      0.59517    
    11855.      0.59883    
    11905.      0.60245    
    11955.      0.60603    
    12005.      0.60958    
    12055.      0.61309    
    12105.      0.61657    
    12155.      0.62002    
    12205.      0.62343    
    12255.      0.62681    
    12305.      0.63016    
    12355.      0.63347    
    12405.      0.63676    
    12455.      0.64001    
    12505.      0.64322    
    12555.      0.64641    
    12605.      0.64956    
    12655.      0.65268    
    12705.      0.65577    
    12755.      0.65883    
    12805.      0.66186    
    12855.      0.66486    
    12905.      0.66783    
    12955.      0.67077    
    13005.      0.67367    
    13055.      0.67655    
    13105.      0.67941    
    13155.      0.68223    
    13205.      0.68502    
    13255.      0.68779    
    13305.      0.69053    
    13355.      0.69324    
    13405.      0.69592    
    13455.      0.69857    
    13505.      0.70120    
    13555.      0.70381    
    13605.      0.70638    
    13655.      0.70893    
    13705.      0.71145    
    13755.      0.71395    
    13804.      0.71642    
    13854.      0.71887    
    13904.      0.72129    
    13954.      0.72369    
    14004.      0.72606    
    14054.      0.72841    
    14104.      0.73074    
    14154.      0.73304    
    14204.      0.73532    
    14254.      0.73757    
    14304.      0.73980    
    14354.      0.74201    
    14404.      0.74420    
    14454.      0.74636    
    14504.      0.74851    
    14554.      0.75063    
    14604.      0.75273    
    14654.      0.75481    
    14704.      0.75686    
    14754.      0.75890    
    14804.      0.76091    
    14854.      0.76291    
    14904.      0.76488    
    14954.      0.76684    
    15004.      0.76877    
    15054.      0.77069    
    15104.      0.77259    
    15154.      0.77446    
    15204.      0.77632    
    15254.      0.77816    
    15304.      0.77998    
    15354.      0.78179    
    15404.      0.78357    
    15454.      0.78534    
    15504.      0.78709    
    15554.      0.78882    
    15604.      0.79054    
    15654.      0.79223    
    15704.      0.79391    
    15754.      0.79558    
    15804.      0.79722    
    15854.      0.79886    
    15904.      0.80047    
    15954.      0.80207    
    16004.      0.80365    
    16054.      0.80522    
    16104.      0.80677    
    16154.      0.80831    
    16204.      0.80983    
    16253.      0.81133    
    16303.      0.81282    
    16353.      0.81430    
    16403.      0.81576    
    16453.      0.81721    
    16503.      0.81864    
    16553.      0.82006    
    16603.      0.82147    
    16653.      0.82286    
    16703.      0.82424    
    16753.      0.82560    
    16803.      0.82696    
    16853.      0.82829    
    16903.      0.82962    
    16953.      0.83093    
    17003.      0.83223    
    17053.      0.83352    
    17103.      0.83480    
    17153.      0.83606    
    17203.      0.83731    
    17253.      0.83855    
    17303.      0.83978    
    17353.      0.84099    
    17403.      0.84219    
    17453.      0.84338    
    17503.      0.84457    
    17553.      0.84573    
    17603.      0.84689    
    17653.      0.84804    
    17703.      0.84917    
    17753.      0.85030    
    17803.      0.85142    
    17853.      0.85252    
    17903.      0.85361    
    17953.      0.85470    
    18003.      0.85577    
    18053.      0.85684    
    18103.      0.85789    
    18153.      0.85893    
    18203.      0.85997    
    18253.      0.86099    
    18303.      0.86200    
    18353.      0.86301    
    18403.      0.86401    
    18453.      0.86499    
    18503.      0.86597    
    18553.      0.86694    
    18603.      0.86790    
    18653.      0.86885    
    18703.      0.86979    
    18753.      0.87073    
    18802.      0.87165    
    18852.      0.87257    
    18902.      0.87347    
    18952.      0.87437    
    19002.      0.87527    
    19052.      0.87615    
    19102.      0.87702    
    19152.      0.87789    
    19202.      0.87875    
    19252.      0.87960    
    19302.      0.88045    
    19352.      0.88128    
    19402.      0.88211    
    19452.      0.88293    
    19502.      0.88375    
    19552.      0.88456    
    19602.      0.88536    
    19652.      0.88615    
    19702.      0.88693    
    19752.      0.88771    
    19802.      0.88848    
    19852.      0.88925    
    19902.      0.89001    
    19952.      0.89076    
    20002.      0.89150    
    20052.      0.89224    
    20102.      0.89297    
    20152.      0.89370    
    20202.      0.89442    
    20252.      0.89513    
    20302.      0.89584    
    20352.      0.89654    
    20402.      0.89723    
    20452.      0.89792    
    20502.      0.89861    
    20552.      0.89928    
    20602.      0.89995    
    20652.      0.90062    
    20702.      0.90128    
    20752.      0.90193    
    20802.      0.90258    
    20852.      0.90322    
    20902.      0.90386    
    20952.      0.90449    
    21002.      0.90512    
    21052.      0.90574    
    21102.      0.90635    
    21152.      0.90696    
    21202.      0.90757    
    21252.      0.90817    
    21301.      0.90876    
    21351.      0.90935    
    21401.      0.90994    
    21451.      0.91052    
    21501.      0.91109    
    21551.      0.91166    
    21601.      0.91223    
    21651.      0.91279    
    21701.      0.91335    
    21751.      0.91390    
    21801.      0.91444    
    21851.      0.91499    
    21901.      0.91553    
    21951.      0.91606    
    22001.      0.91659    
    22051.      0.91711    
    22101.      0.91763    
    22151.      0.91815    
    22201.      0.91866    
    22251.      0.91917    
    22301.      0.91967    
    22351.      0.92017    
    22401.      0.92067    
    22451.      0.92116    
    22501.      0.92165    
    22551.      0.92213    
    22601.      0.92261    
    22651.      0.92309    
    22701.      0.92356    
    22751.      0.92403    
    22801.      0.92449    
    22851.      0.92495    
    22901.      0.92541    
    22951.      0.92587    
    23001.      0.92632    
    23051.      0.92676    
    23101.      0.92720    
    23151.      0.92764    
    23201.      0.92808    
    23251.      0.92851    
    23301.      0.92894    
    23351.      0.92937    
    23401.      0.92979    
    23451.      0.93021    
    23501.      0.93062    
    23551.      0.93104    
    23601.      0.93145    
    23651.      0.93185    
    23701.      0.93225    
    23750.      0.93265    
    23800.      0.93305    
    23850.      0.93344    
    23900.      0.93383    
    23950.      0.93422    
    24000.      0.93461    
    24050.      0.93499    
    24100.      0.93537    
    24150.      0.93574    
    24200.      0.93612    
    24250.      0.93649    
    24300.      0.93685    
    24350.      0.93722    
    24400.      0.93758    
    24450.      0.93794    
    24500.      0.93829    
    24550.      0.93865    
    24600.      0.93900    
    24650.      0.93935    
    24700.      0.93969    
    24750.      0.94003    
    24800.      0.94037    
    24850.      0.94071    
    24900.      0.94105    
    24950.      0.94138    
    25000.      0.94171    